TimeStamp,Delta_TP9,Delta_AF7,Delta_AF8,Delta_TP10,Theta_TP9,Theta_AF7,Theta_AF8,Theta_TP10,Alpha_TP9,Alpha_AF7,Alpha_AF8,Alpha_TP10,Beta_TP9,Beta_AF7,Beta_AF8,Beta_TP10,Gamma_TP9,Gamma_AF7,Gamma_AF8,Gamma_TP10,RAW_TP9,RAW_AF7,RAW_AF8,RAW_TP10,AUX_RIGHT,AUX_LEFT,Accelerometer_X,Accelerometer_Y,Accelerometer_Z,Gyro_X,Gyro_Y,Gyro_Z,PPG_Ambient,PPG_IR,PPG_Red,Heart_Rate,HeadBandOn,HSI_TP9,HSI_AF7,HSI_AF8,HSI_TP10,Battery,Elements
2025-09-24 18:19:38.467,,,,,,,,,,,,,,,,,,,,,,,,,,,,,,,,,,,,,,,,,,,/muse/event/connected MuseS-9CF6
2025-09-24 18:19:38.479,1.2525473,0.93689686,-0.060598224,1.1889619,0.8636205,0.26770833,-0.033792466,0.89684576,1.2479497,0.40043864,0.30219686,1.4810139,0.4197636,0.123877116,0.2917859,0.5569236,0.26911443,0.28800443,0.03027091,0.36302552,788.5348,837.28937,788.93774,778.0586,914.65204,1092.3444,-0.24072265625,0.02020263671875,0.9666748046875,0.082244873046875,-3.416900634765625,-0.560760498046875,4.225023443223443E8,3.673693772893773E8,3431355.3113553114,69.198,1,1.0,1.0,1.0,1.0,100.00
2025-09-24 18:19:38.479,1.2525473,0.93689686,-0.060598224,1.1889619,0.8636205,0.26770833,-0.033792466,0.89684576,1.2479497,0.40043864,0.30219686,1.4810139,0.4197636,0.123877116,0.2917859,0.5569236,0.26911443,0.28800443,0.03027091,0.36302552,783.2967,714.7985,786.1172,773.22345,922.71063,857.8388,-0.24072265625,0.02020263671875,0.9666748046875,0.082244873046875,-3.416900634765625,-0.560760498046875,4.225023443223443E8,3.673693772893773E8,3431355.3113553114,69.198,1,1.0,1.0,1.0,1.0,100.00
2025-09-24 18:19:38.480,1.2525473,0.93689686,-0.060598224,1.1889619,0.8636205,0.26770833,-0.033792466,0.89684576,1.2479497,0.40043864,0.30219686,1.4810139,0.4197636,0.123877116,0.2917859,0.5569236,0.26911443,0.28800443,0.03027091,0.36302552,770.80585,814.3223,786.1172,763.95605,940.4396,688.60803,-0.24072265625,0.02020263671875,0.9666748046875,0.082244873046875,-3.416900634765625,-0.560760498046875,4.225023443223443E8,3.673693772893773E8,3431355.3113553114,69.198,1,1.0,1.0,1.0,1.0,100.00
2025-09-24 18:19:38.480,1.2525473,0.93689686,-0.060598224,1.1889619,0.8636205,0.26770833,-0.033792466,0.89684576,1.2479497,0.40043864,0.30219686,1.4810139,0.4197636,0.123877116,0.2917859,0.5569236,0.26911443,0.28800443,0.03027091,0.36302552,764.35895,801.02563,784.10254,749.0476,837.6923,685.38464,-0.24072265625,0.02020263671875,0.9666748046875,0.082244873046875,-3.416900634765625,-0.560760498046875,4.225023443223443E8,3.673693772893773E8,3431355.3113553114,69.198,1,1.0,1.0,1.0,1.0,100.00
2025-09-24 18:19:38.480,1.2525473,0.93689686,-0.060598224,1.1889619,0.8636205,0.26770833,-0.033792466,0.89684576,1.2479497,0.40043864,0.30219686,1.4810139,0.4197636,0.123877116,0.2917859,0.5569236,0.26911443,0.28800443,0.03027091,0.36302552,773.22345,785.31134,782.49084,751.8681,718.4249,611.6484,-0.24072265625,0.02020263671875,0.9666748046875,0.082244873046875,-3.416900634765625,-0.560760498046875,4.225023443223443E8,3.673693772893773E8,3431355.3113553114,69.198,1,1.0,1.0,1.0,1.0,100.00
2025-09-24 18:19:38.480,1.2525473,0.93689686,-0.060598224,1.1889619,0.8636205,0.26770833,-0.033792466,0.89684576,1.2479497,0.40043864,0.30219686,1.4810139,0.4197636,0.123877116,0.2917859,0.5569236,0.26911443,0.28800443,0.03027091,0.36302552,780.87915,981.13556,787.326,768.7912,695.8608,892.8938,-0.24072265625,0.02020263671875,0.9666748046875,0.082244873046875,-3.416900634765625,-0.560760498046875,4.225023443223443E8,3.673693772893773E8,3431355.3113553114,69.198,1,1.0,1.0,1.0,1.0,100.00
2025-09-24 18:19:38.481,1.2525473,0.93689686,-0.060598224,1.1889619,0.8636205,0.26770833,-0.033792466,0.89684576,1.2479497,0.40043864,0.30219686,1.4810139,0.4197636,0.123877116,0.2917859,0.5569236,0.26911443,0.28800443,0.03027091,0.36302552,773.6264,862.27106,780.07324,758.315,732.9304,1118.5348,-0.24072265625,0.02020263671875,0.9666748046875,0.082244873046875,-3.416900634765625,-0.560760498046875,4.225023443223443E8,3.673693772893773E8,3431355.3113553114,69.198,1,1.0,1.0,1.0,1.0,100.00
2025-09-24 18:19:38.481,1.2525473,0.93689686,-0.060598224,1.1889619,0.8636205,0.26770833,-0.033792466,0.89684576,1.2479497,0.40043864,0.30219686,1.4810139,0.4197636,0.123877116,0.2917859,0.5569236,0.26911443,0.28800443,0.03027091,0.36302552,770.80585,640.65936,777.6557,746.63007,778.0586,809.89014,-0.24072265625,0.02020263671875,0.9666748046875,0.082244873046875,-3.416900634765625,-0.560760498046875,4.225023443223443E8,3.673693772893773E8,3431355.3113553114,69.198,1,1.0,1.0,1.0,1.0,100.00
2025-09-24 18:19:38.481,1.2525473,0.93689686,-0.060598224,1.1889619,0.8636205,0.26770833,-0.033792466,0.89684576,1.2479497,0.40043864,0.30219686,1.4810139,0.4197636,0.123877116,0.2917859,0.5569236,0.26911443,0.28800443,0.03027091,0.36302552,786.1172,747.4359,789.34064,763.95605,748.24176,591.50183,-0.24072265625,0.02020263671875,0.9666748046875,0.082244873046875,-3.416900634765625,-0.560760498046875,4.225023443223443E8,3.673693772893773E8,3431355.3113553114,69.198,1,1.0,1.0,1.0,1.0,100.00
2025-09-24 18:19:38.481,1.2525473,0.93689686,-0.060598224,1.1889619,0.8636205,0.26770833,-0.033792466,0.89684576,1.2479497,0.40043864,0.30219686,1.4810139,0.4197636,0.123877116,0.2917859,0.5569236,0.26911443,0.28800443,0.03027091,0.36302552,794.57874,850.989,799.41394,770.40295,809.89014,652.3443,-0.24072265625,0.02020263671875,0.9666748046875,0.082244873046875,-3.416900634765625,-0.560760498046875,4.225023443223443E8,3.673693772893773E8,3431355.3113553114,69.198,1,1.0,1.0,1.0,1.0,100.00
2025-09-24 18:19:38.482,1.2525473,0.93689686,-0.060598224,1.1889619,0.8636205,0.26770833,-0.033792466,0.89684576,1.2479497,0.40043864,0.30219686,1.4810139,0.4197636,0.123877116,0.2917859,0.5569236,0.26911443,0.28800443,0.03027091,0.36302552,782.8938,857.4359,796.99634,760.7326,941.6484,723.2601,-0.24072265625,0.02020263671875,0.9666748046875,0.082244873046875,-3.416900634765625,-0.560760498046875,4.225023443223443E8,3.673693772893773E8,3431355.3113553114,69.198,1,1.0,1.0,1.0,1.0,100.00
2025-09-24 18:19:38.482,1.252891,0.93689686,0.0079080425,1.1960944,0.79364294,0.26770833,0.003557227,0.92595434,1.213841,0.40043864,0.3073577,1.4734291,0.41008374,0.123877116,0.29314056,0.54993117,0.277473,0.28800443,0.038795795,0.35706654,789.34064,819.15753,792.5641,763.95605,899.34064,757.9121,-0.24072265625,0.02020263671875,0.9666748046875,0.082244873046875,-3.416900634765625,-0.560760498046875,4.225023443223443E8,3.673693772893773E8,3431355.3113553114,69.198,1,1.0,1.0,1.0,1.0,100.00
2025-09-24 18:19:38.505,1.252891,0.93689686,0.0079080425,1.1960944,0.79364294,0.26770833,0.003557227,0.92595434,1.213841,0.40043864,0.3073577,1.4734291,0.41008374,0.123877116,0.29314056,0.54993117,0.277473,0.28800443,0.038795795,0.35706654,806.6667,777.6557,796.5934,771.2088,830.4396,744.21246,-0.24072265625,0.02020263671875,0.9666748046875,0.082244873046875,-3.416900634765625,-0.560760498046875,4.225023443223443E8,3.673693772893773E8,3431355.3113553114,69.198,1,1.0,1.0,1.0,1.0,100.00
2025-09-24 18:19:38.506,1.252891,0.93689686,0.0079080425,1.1960944,0.79364294,0.26770833,0.003557227,0.92595434,1.213841,0.40043864,0.3073577,1.4734291,0.41008374,0.123877116,0.29314056,0.54993117,0.277473,0.28800443,0.038795795,0.35706654,800.2198,796.5934,795.78754,770.40295,850.989,695.8608,-0.24072265625,0.02020263671875,0.9666748046875,0.082244873046875,-3.416900634765625,-0.560760498046875,4.225023443223443E8,3.673693772893773E8,3431355.3113553114,69.198,1,1.0,1.0,1.0,1.0,100.00
2025-09-24 18:19:38.506,1.252891,0.93689686,0.0079080425,1.1960944,0.79364294,0.26770833,0.003557227,0.92595434,1.213841,0.40043864,0.3073577,1.4734291,0.41008374,0.123877116,0.29314056,0.54993117,0.277473,0.28800443,0.038795795,0.35706654,805.4579,931.978,793.7729,781.28204,777.25275,760.7326,-0.24072265625,0.02020263671875,0.9666748046875,0.082244873046875,-3.416900634765625,-0.560760498046875,4.225023443223443E8,3.673693772893773E8,3431355.3113553114,69.198,1,1.0,1.0,1.0,1.0,100.00
2025-09-24 18:19:38.506,1.252891,0.93689686,0.0079080425,1.1960944,0.79364294,0.26770833,0.003557227,0.92595434,1.213841,0.40043864,0.3073577,1.4734291,0.41008374,0.123877116,0.29314056,0.54993117,0.277473,0.28800443,0.038795795,0.35706654,815.12823,920.293,793.36993,784.5055,759.12085,1002.8938,-0.24072265625,0.02020263671875,0.9666748046875,0.082244873046875,-3.416900634765625,-0.560760498046875,4.225023443223443E8,3.673693772893773E8,3431355.3113553114,69.198,1,1.0,1.0,1.0,1.0,100.00
2025-09-24 18:19:38.506,1.252891,0.93689686,0.0079080425,1.1960944,0.79364294,0.26770833,0.003557227,0.92595434,1.213841,0.40043864,0.3073577,1.4734291,0.41008374,0.123877116,0.29314056,0.54993117,0.277473,0.28800443,0.038795795,0.35706654,806.6667,732.9304,790.14655,774.0293,811.50183,945.2747,-0.24072265625,0.02020263671875,0.9666748046875,0.082244873046875,-3.416900634765625,-0.560760498046875,4.225023443223443E8,3.673693772893773E8,3431355.3113553114,69.198,1,1.0,1.0,1.0,1.0,100.00
2025-09-24 18:19:38.507,1.252891,0.93689686,0.0079080425,1.1960944,0.79364294,0.26770833,0.003557227,0.92595434,1.213841,0.40043864,0.3073577,1.4734291,0.41008374,0.123877116,0.29314056,0.54993117,0.277473,0.28800443,0.038795795,0.35706654,805.4579,880.80585,792.5641,783.69965,838.0952,1087.1062,-0.24072265625,0.02020263671875,0.9666748046875,0.082244873046875,-3.416900634765625,-0.560760498046875,4.225023443223443E8,3.673693772893773E8,3431355.3113553114,69.198,1,1.0,1.0,1.0,1.0,100.00
2025-09-24 18:19:38.507,1.252891,0.93689686,0.0079080425,1.1960944,0.79364294,0.26770833,0.003557227,0.92595434,1.213841,0.40043864,0.3073577,1.4734291,0.41008374,0.123877116,0.29314056,0.54993117,0.277473,0.28800443,0.038795795,0.35706654,807.8755,865.89746,791.75824,796.1905,880.0,1287.7656,-0.24072265625,0.02020263671875,0.9666748046875,0.082244873046875,-3.416900634765625,-0.560760498046875,4.225023443223443E8,3.673693772893773E8,3431355.3113553114,69.198,1,1.0,1.0,1.0,1.0,100.00
2025-09-24 18:19:38.507,1.252891,0.93689686,0.0079080425,1.1960944,0.79364294,0.26770833,0.003557227,0.92595434,1.213841,0.40043864,0.3073577,1.4734291,0.41008374,0.123877116,0.29314056,0.54993117,0.277473,0.28800443,0.038795795,0.35706654,804.65204,621.7216,792.1612,796.99634,908.60803,898.5348,-0.24072265625,0.02020263671875,0.9666748046875,0.082244873046875,-3.416900634765625,-0.560760498046875,4.225023443223443E8,3.673693772893773E8,3431355.3113553114,69.198,1,1.0,1.0,1.0,1.0,100.00
2025-09-24 18:19:38.507,1.252891,0.93689686,0.0079080425,1.1960944,0.79364294,0.26770833,0.003557227,0.92595434,1.213841,0.40043864,0.3073577,1.4734291,0.41008374,0.123877116,0.29314056,0.54993117,0.277473,0.28800443,0.038795795,0.35706654,801.4286,715.6044,794.17584,795.38464,889.67035,693.0403,-0.24072265625,0.02020263671875,0.9666748046875,0.082244873046875,-3.416900634765625,-0.560760498046875,4.225023443223443E8,3.673693772893773E8,3431355.3113553114,69.198,1,1.0,1.0,1.0,1.0,100.00
2025-09-24 18:19:38.508,1.252891,0.93689686,0.0079080425,1.1960944,0.79364294,0.26770833,0.003557227,0.92595434,1.213841,0.40043864,0.3073577,1.4734291,0.41008374,0.123877116,0.29314056,0.54993117,0.277473,0.28800443,0.038795795,0.35706654,794.9817,794.9817,792.96704,783.69965,849.7802,662.8205,-0.24072265625,0.02020263671875,0.9666748046875,0.082244873046875,-3.416900634765625,-0.560760498046875,4.225023443223443E8,3.673693772893773E8,3431355.3113553114,69.198,1,1.0,1.0,1.0,1.0,100.00
2025-09-24 18:19:38.508,1.252891,0.93689686,0.0079080425,1.1960944,0.79364294,0.26770833,0.003557227,0.92595434,1.213841,0.40043864,0.3073577,1.4734291,0.41008374,0.123877116,0.29314056,0.54993117,0.277473,0.28800443,0.038795795,0.35706654,795.38464,859.45056,799.41394,780.4762,860.65936,622.9304,-0.24072265625,0.02020263671875,0.9666748046875,0.082244873046875,-3.416900634765625,-0.560760498046875,4.225023443223443E8,3.673693772893773E8,3431355.3113553114,69.198,1,1.0,1.0,1.0,1.0,100.00
2025-09-24 18:19:38.508,1.252891,0.93689686,0.0079080425,1.1960944,0.79364294,0.26770833,0.003557227,0.92595434,1.213841,0.40043864,0.3073577,1.4734291,0.41008374,0.123877116,0.29314056,0.54993117,0.277473,0.28800443,0.038795795,0.35706654,794.9817,857.03296,802.6374,789.7436,900.54944,750.65936,-0.24072265625,0.02020263671875,0.9666748046875,0.082244873046875,-3.416900634765625,-0.560760498046875,4.225023443223443E8,3.673693772893773E8,3431355.3113553114,69.198,1,1.0,1.0,1.0,1.0,100.00
2025-09-24 18:19:38.510,1.252891,0.93689686,0.0079080425,1.1960944,0.79364294,0.26770833,0.003557227,0.92595434,1.213841,0.40043864,0.3073577,1.4734291,0.41008374,0.123877116,0.29314056,0.54993117,0.277473,0.28800443,0.038795795,0.35706654,792.5641,775.2381,796.99634,780.07324,885.64105,779.67035,-0.23968505859375,0.0179443359375,0.964111328125,-0.76263427734375,-2.94586181640625,-0.6280517578125,4.225023443223443E8,3.6726461538461536E8,3436190.476190476,69.2718,1,1.0,1.0,1.0,1.0,100.00
2025-09-24 18:19:38.510,1.252891,0.93689686,0.0079080425,1.1960944,0.79364294,0.26770833,0.003557227,0.92595434,1.213841,0.40043864,0.3073577,1.4734291,0.41008374,0.123877116,0.29314056,0.54993117,0.277473,0.28800443,0.038795795,0.35706654,790.14655,773.22345,794.9817,773.22345,830.4396,691.8315,-0.23968505859375,0.0179443359375,0.964111328125,-0.76263427734375,-2.94586181640625,-0.6280517578125,4.225023443223443E8,3.6726461538461536E8,3436190.476190476,69.2718,1,1.0,1.0,1.0,1.0,100.00
2025-09-24 18:19:38.511,1.252891,0.93689686,0.0079080425,1.1960944,0.79364294,0.26770833,0.003557227,0.92595434,1.213841,0.40043864,0.3073577,1.4734291,0.41008374,0.123877116,0.29314056,0.54993117,0.277473,0.28800443,0.038795795,0.35706654,778.86444,851.39197,794.9817,768.7912,832.0513,639.85345,-0.23968505859375,0.0179443359375,0.964111328125,-0.76263427734375,-2.94586181640625,-0.6280517578125,4.225023443223443E8,3.6726461538461536E8,3436190.476190476,69.2718,1,1.0,1.0,1.0,1.0,100.00
2025-09-24 18:19:38.511,1.252891,0.93689686,0.0079080425,1.1960944,0.79364294,0.26770833,0.003557227,0.92595434,1.213841,0.40043864,0.3073577,1.4734291,0.41008374,0.123877116,0.29314056,0.54993117,0.277473,0.28800443,0.038795795,0.35706654,780.87915,813.1135,793.7729,765.9707,794.17584,652.74725,-0.23968505859375,0.0179443359375,0.964111328125,-0.76263427734375,-2.94586181640625,-0.6280517578125,4.225023443223443E8,3.6726461538461536E8,3436190.476190476,69.2718,1,1.0,1.0,1.0,1.0,100.00
2025-09-24 18:19:38.511,1.252891,0.93689686,0.0079080425,1.1960944,0.79364294,0.26770833,0.003557227,0.92595434,1.213841,0.40043864,0.3073577,1.4734291,0.41008374,0.123877116,0.29314056,0.54993117,0.277473,0.28800443,0.038795795,0.35706654,787.326,814.3223,794.9817,771.2088,738.1685,731.7216,-0.23968505859375,0.0179443359375,0.964111328125,-0.76263427734375,-2.94586181640625,-0.6280517578125,4.225023443223443E8,3.6726461538461536E8,3436190.476190476,69.2718,1,1.0,1.0,1.0,1.0,100.00
2025-09-24 18:19:38.511,1.252891,0.93689686,0.0079080425,1.1960944,0.79364294,0.26770833,0.003557227,0.92595434,1.213841,0.40043864,0.3073577,1.4734291,0.41008374,0.123877116,0.29314056,0.54993117,0.277473,0.28800443,0.038795795,0.35706654,792.96704,849.3773,799.81683,778.0586,770.0,946.08057,-0.23968505859375,0.0179443359375,0.964111328125,-0.76263427734375,-2.94586181640625,-0.6280517578125,4.225023443223443E8,3.6726461538461536E8,3436190.476190476,69.2718,1,1.0,1.0,1.0,1.0,100.00
2025-09-24 18:19:38.512,1.252891,0.93689686,0.0079080425,1.1960944,0.79364294,0.26770833,0.003557227,0.92595434,1.213841,0.40043864,0.3073577,1.4734291,0.41008374,0.123877116,0.29314056,0.54993117,0.277473,0.28800443,0.038795795,0.35706654,782.0879,826.8132,799.81683,771.2088,834.4689,923.1135,-0.23968505859375,0.0179443359375,0.964111328125,-0.76263427734375,-2.94586181640625,-0.6280517578125,4.225023443223443E8,3.6726461538461536E8,3436190.476190476,69.2718,1,1.0,1.0,1.0,1.0,100.00
2025-09-24 18:19:38.512,1.252891,0.93689686,0.0079080425,1.1960944,0.79364294,0.26770833,0.003557227,0.92595434,1.213841,0.40043864,0.3073577,1.4734291,0.41008374,0.123877116,0.29314056,0.54993117,0.277473,0.28800443,0.038795795,0.35706654,768.7912,862.27106,798.20514,765.56775,849.3773,1072.6007,-0.23968505859375,0.0179443359375,0.964111328125,-0.76263427734375,-2.94586181640625,-0.6280517578125,4.225023443223443E8,3.6726461538461536E8,3436190.476190476,69.2718,1,1.0,1.0,1.0,1.0,100.00
2025-09-24 18:19:38.512,1.252891,0.93689686,0.0079080425,1.1960944,0.79364294,0.26770833,0.003557227,0.92595434,1.213841,0.40043864,0.3073577,1.4734291,0.41008374,0.123877116,0.29314056,0.54993117,0.277473,0.28800443,0.038795795,0.35706654,777.6557,689.41394,799.41394,775.2381,870.7326,922.71063,-0.23968505859375,0.0179443359375,0.964111328125,-0.76263427734375,-2.94586181640625,-0.6280517578125,4.225023443223443E8,3.6726461538461536E8,3436190.476190476,69.2718,1,1.0,1.0,1.0,1.0,100.00
2025-09-24 18:19:38.512,1.252891,0.93689686,0.0079080425,1.1960944,0.79364294,0.26770833,0.003557227,0.92595434,1.213841,0.40043864,0.3073577,1.4734291,0.41008374,0.123877116,0.29314056,0.54993117,0.277473,0.28800443,0.038795795,0.35706654,778.86444,697.8755,796.1905,774.43225,826.0073,617.28937,-0.23968505859375,0.0179443359375,0.964111328125,-0.76263427734375,-2.94586181640625,-0.6280517578125,4.225023443223443E8,3.6726461538461536E8,3436190.476190476,69.2718,1,1.0,1.0,1.0,1.0,100.00
2025-09-24 18:19:38.512,1.252891,0.93689686,0.0079080425,1.1960944,0.79364294,0.26770833,0.003557227,0.92595434,1.213841,0.40043864,0.3073577,1.4734291,0.41008374,0.123877116,0.29314056,0.54993117,0.277473,0.28800443,0.038795795,0.35706654,771.2088,833.2601,794.57874,764.35895,764.35895,539.5238,-0.23968505859375,0.0179443359375,0.964111328125,-0.76263427734375,-2.94586181640625,-0.6280517578125,4.225023443223443E8,3.6726461538461536E8,3436190.476190476,69.2718,1,1.0,1.0,1.0,1.0,100.00
2025-09-24 18:19:38.512,1.252891,0.93689686,0.0079080425,1.1960944,0.79364294,0.26770833,0.003557227,0.92595434,1.213841,0.40043864,0.3073577,1.4734291,0.41008374,0.123877116,0.29314056,0.54993117,0.277473,0.28800443,0.038795795,0.35706654,776.4469,904.9817,797.3993,764.35895,817.1429,707.5458,-0.23968505859375,0.0179443359375,0.964111328125,-0.76263427734375,-2.94586181640625,-0.6280517578125,4.225023443223443E8,3.6726461538461536E8,3436190.476190476,69.2718,1,1.0,1.0,1.0,1.0,100.00
2025-09-24 18:19:38.558,1.252891,0.93689686,0.0079080425,1.1960944,0.79364294,0.26770833,0.003557227,0.92595434,1.213841,0.40043864,0.3073577,1.4734291,0.41008374,0.123877116,0.29314056,0.54993117,0.277473,0.28800443,0.038795795,0.35706654,776.4469,833.2601,795.78754,768.7912,877.1795,823.1868,-0.232666015625,0.013916015625,0.9654541015625,-1.1065673828125,-2.093505859375,0.291595458984375,4.225023443223443E8,3.6726461538461536E8,3436190.476190476,69.2718,1,1.0,1.0,1.0,1.0,100.00
2025-09-24 18:19:38.558,1.2478455,0.93689686,0.092884295,1.191634,0.72736794,0.26770833,0.038222447,0.94455403,1.1527175,0.40043864,0.32332385,1.4589703,0.40546486,0.123877116,0.29527247,0.5365736,0.28682783,0.28800443,0.0411088,0.35299245,768.3883,817.1429,791.75824,763.95605,940.4396,840.9158,-0.232666015625,0.013916015625,0.9654541015625,-1.1065673828125,-2.093505859375,0.291595458984375,4.225023443223443E8,3.6726461538461536E8,3436190.476190476,69.2718,1,1.0,1.0,1.0,1.0,100.00
2025-09-24 18:19:38.559,1.2478455,0.93689686,0.092884295,1.191634,0.72736794,0.26770833,0.038222447,0.94455403,1.1527175,0.40043864,0.32332385,1.4589703,0.40546486,0.123877116,0.29527247,0.5365736,0.28682783,0.28800443,0.0411088,0.35299245,767.5824,906.5934,795.38464,755.09155,910.2198,1025.0549,-0.232666015625,0.013916015625,0.9654541015625,-1.1065673828125,-2.093505859375,0.291595458984375,4.225023443223443E8,3.6726461538461536E8,3436190.476190476,69.2718,1,1.0,1.0,1.0,1.0,100.00
2025-09-24 18:19:38.559,1.2478455,0.93689686,0.092884295,1.191634,0.72736794,0.26770833,0.038222447,0.94455403,1.1527175,0.40043864,0.32332385,1.4589703,0.40546486,0.123877116,0.29527247,0.5365736,0.28682783,0.28800443,0.0411088,0.35299245,773.22345,741.79486,793.7729,761.13556,839.707,941.2454,-0.232666015625,0.013916015625,0.9654541015625,-1.1065673828125,-2.093505859375,0.291595458984375,4.225023443223443E8,3.6726461538461536E8,3436190.476190476,69.2718,1,1.0,1.0,1.0,1.0,100.00
2025-09-24 18:19:38.559,1.2478455,0.93689686,0.092884295,1.191634,0.72736794,0.26770833,0.038222447,0.94455403,1.1527175,0.40043864,0.32332385,1.4589703,0.40546486,0.123877116,0.29527247,0.5365736,0.28682783,0.28800443,0.0411088,0.35299245,780.07324,766.77655,794.57874,772.4176,863.0769,811.9048,-0.232666015625,0.013916015625,0.9654541015625,-1.1065673828125,-2.093505859375,0.291595458984375,4.225023443223443E8,3.6726461538461536E8,3436190.476190476,69.2718,1,1.0,1.0,1.0,1.0,100.00
2025-09-24 18:19:38.560,1.2478455,0.93689686,0.092884295,1.191634,0.72736794,0.26770833,0.038222447,0.94455403,1.1527175,0.40043864,0.32332385,1.4589703,0.40546486,0.123877116,0.29527247,0.5365736,0.28682783,0.28800443,0.0411088,0.35299245,781.685,875.16486,804.2491,774.83514,858.6447,1020.2198,-0.232666015625,0.013916015625,0.9654541015625,-1.1065673828125,-2.093505859375,0.291595458984375,4.225023443223443E8,3.6726461538461536E8,3436190.476190476,69.2718,1,1.0,1.0,1.0,1.0,100.00
2025-09-24 18:19:38.560,1.2478455,0.93689686,0.092884295,1.191634,0.72736794,0.26770833,0.038222447,0.94455403,1.1527175,0.40043864,0.32332385,1.4589703,0.40546486,0.123877116,0.29527247,0.5365736,0.28682783,0.28800443,0.0411088,0.35299245,782.8938,831.2454,810.293,772.01465,829.2308,1011.3553,-0.232666015625,0.013916015625,0.9654541015625,-1.1065673828125,-2.093505859375,0.291595458984375,4.225023443223443E8,3.6726461538461536E8,3436190.476190476,69.2718,1,1.0,1.0,1.0,1.0,100.00
2025-09-24 18:19:38.560,1.2478455,0.93689686,0.092884295,1.191634,0.72736794,0.26770833,0.038222447,0.94455403,1.1527175,0.40043864,0.32332385,1.4589703,0.40546486,0.123877116,0.29527247,0.5365736,0.28682783,0.28800443,0.0411088,0.35299245,782.0879,805.4579,806.6667,773.22345,856.63007,958.1685,-0.232666015625,0.013916015625,0.9654541015625,-1.1065673828125,-2.093505859375,0.291595458984375,4.225023443223443E8,3.6726461538461536E8,3436190.476190476,69.2718,1,1.0,1.0,1.0,1.0,100.00
2025-09-24 18:19:38.560,1.2478455,0.93689686,0.092884295,1.191634,0.72736794,0.26770833,0.038222447,0.94455403,1.1527175,0.40043864,0.32332385,1.4589703,0.40546486,0.123877116,0.29527247,0.5365736,0.28682783,0.28800443,0.0411088,0.35299245,776.4469,699.0842,798.20514,772.4176,842.9304,722.0513,-0.232666015625,0.013916015625,0.9654541015625,-1.1065673828125,-2.093505859375,0.291595458984375,4.225023443223443E8,3.6726461538461536E8,3436190.476190476,69.2718,1,1.0,1.0,1.0,1.0,100.00
2025-09-24 18:19:38.560,1.2478455,0.93689686,0.092884295,1.191634,0.72736794,0.26770833,0.038222447,0.94455403,1.1527175,0.40043864,0.32332385,1.4589703,0.40546486,0.123877116,0.29527247,0.5365736,0.28682783,0.28800443,0.0411088,0.35299245,786.9231,821.5751,800.2198,778.0586,812.3077,652.3443,-0.232666015625,0.013916015625,0.9654541015625,-1.1065673828125,-2.093505859375,0.291595458984375,4.225023443223443E8,3.6726461538461536E8,3436190.476190476,69.2718,1,1.0,1.0,1.0,1.0,100.00
2025-09-24 18:19:38.560,1.2478455,0.93689686,0.092884295,1.191634,0.72736794,0.26770833,0.038222447,0.94455403,1.1527175,0.40043864,0.32332385,1.4589703,0.40546486,0.123877116,0.29527247,0.5365736,0.28682783,0.28800443,0.0411088,0.35299245,788.1319,903.36993,797.8022,775.64105,848.97437,839.707,-0.232666015625,0.013916015625,0.9654541015625,-1.1065673828125,-2.093505859375,0.291595458984375,4.225023443223443E8,3.6726461538461536E8,3436190.476190476,69.2718,1,1.0,1.0,1.0,1.0,100.00
2025-09-24 18:19:38.560,1.2478455,0.93689686,0.092884295,1.191634,0.72736794,0.26770833,0.038222447,0.94455403,1.1527175,0.40043864,0.32332385,1.4589703,0.40546486,0.123877116,0.29527247,0.5365736,0.28682783,0.28800443,0.0411088,0.35299245,779.67035,787.326,790.14655,765.9707,824.3956,741.79486,-0.232666015625,0.013916015625,0.9654541015625,-1.1065673828125,-2.093505859375,0.291595458984375,4.225023443223443E8,3.6726461538461536E8,3436190.476190476,69.2718,1,1.0,1.0,1.0,1.0,100.00
2025-09-24 18:19:38.614,1.2478455,0.93689686,0.092884295,1.191634,0.72736794,0.26770833,0.038222447,0.94455403,1.1527175,0.40043864,0.32332385,1.4589703,0.40546486,0.123877116,0.29527247,0.5365736,0.28682783,0.28800443,0.0411088,0.35299245,778.0586,948.9011,792.96704,765.56775,894.90845,954.94507,-0.233154296875,0.0133056640625,0.96051025390625,-0.3289794921875,-1.801910400390625,0.22430419921875,4.225023443223443E8,3.6721142857142854E8,3410402.9304029304,69.48488,1,1.0,1.0,1.0,1.0,100.00
2025-09-24 18:19:38.615,1.2478455,0.93689686,0.092884295,1.191634,0.72736794,0.26770833,0.038222447,0.94455403,1.1527175,0.40043864,0.32332385,1.4589703,0.40546486,0.123877116,0.29527247,0.5365736,0.28682783,0.28800443,0.0411088,0.35299245,780.4762,878.3883,793.7729,770.40295,1100.403,1224.1025,-0.233154296875,0.0133056640625,0.96051025390625,-0.3289794921875,-1.801910400390625,0.22430419921875,4.225023443223443E8,3.6721142857142854E8,3410402.9304029304,69.48488,1,1.0,1.0,1.0,1.0,100.00
2025-09-24 18:19:38.615,1.2478455,0.93689686,0.092884295,1.191634,0.72736794,0.26770833,0.038222447,0.94455403,1.1527175,0.40043864,0.32332385,1.4589703,0.40546486,0.123877116,0.29527247,0.5365736,0.28682783,0.28800443,0.0411088,0.35299245,786.1172,758.315,794.17584,776.8498,1139.0842,1182.1978,-0.233154296875,0.0133056640625,0.96051025390625,-0.3289794921875,-1.801910400390625,0.22430419921875,4.225023443223443E8,3.6721142857142854E8,3410402.9304029304,69.48488,1,1.0,1.0,1.0,1.0,100.00
2025-09-24 18:19:38.616,1.2478455,0.93689686,0.092884295,1.191634,0.72736794,0.26770833,0.038222447,0.94455403,1.1527175,0.40043864,0.32332385,1.4589703,0.40546486,0.123877116,0.29527247,0.5365736,0.28682783,0.28800443,0.0411088,0.35299245,782.49084,772.01465,799.011,775.64105,1100.0,1170.9158,-0.233154296875,0.0133056640625,0.96051025390625,-0.3289794921875,-1.801910400390625,0.22430419921875,4.225023443223443E8,3.6721142857142854E8,3410402.9304029304,69.48488,1,1.0,1.0,1.0,1.0,100.00
2025-09-24 18:19:38.616,1.2478455,0.93689686,0.092884295,1.191634,0.72736794,0.26770833,0.038222447,0.94455403,1.1527175,0.40043864,0.32332385,1.4589703,0.40546486,0.123877116,0.29527247,0.5365736,0.28682783,0.28800443,0.0411088,0.35299245,767.5824,792.1612,800.2198,759.92676,1045.2014,1177.7656,-0.233154296875,0.0133056640625,0.96051025390625,-0.3289794921875,-1.801910400390625,0.22430419921875,4.225023443223443E8,3.6721142857142854E8,3410402.9304029304,69.48488,1,1.0,1.0,1.0,1.0,100.00
2025-09-24 18:19:38.616,1.2478455,0.93689686,0.092884295,1.191634,0.72736794,0.26770833,0.038222447,0.94455403,1.1527175,0.40043864,0.32332385,1.4589703,0.40546486,0.123877116,0.29527247,0.5365736,0.28682783,0.28800443,0.0411088,0.35299245,756.7033,890.07324,796.99634,744.21246,1028.2784,1436.8499,-0.233154296875,0.0133056640625,0.96051025390625,-0.3289794921875,-1.801910400390625,0.22430419921875,4.225023443223443E8,3.6721142857142854E8,3410402.9304029304,69.48488,1,1.0,1.0,1.0,1.0,100.00
2025-09-24 18:19:38.617,1.2478455,0.93689686,0.092884295,1.191634,0.72736794,0.26770833,0.038222447,0.94455403,1.1527175,0.40043864,0.32332385,1.4589703,0.40546486,0.123877116,0.29527247,0.5365736,0.28682783,0.28800443,0.0411088,0.35299245,761.53845,832.4542,802.23444,753.0769,1039.1575,1458.2051,-0.233154296875,0.0133056640625,0.96051025390625,-0.3289794921875,-1.801910400390625,0.22430419921875,4.225023443223443E8,3.6721142857142854E8,3410402.9304029304,69.48488,1,1.0,1.0,1.0,1.0,100.00
2025-09-24 18:19:38.617,1.2478455,0.93689686,0.092884295,1.191634,0.72736794,0.26770833,0.038222447,0.94455403,1.1527175,0.40043864,0.32332385,1.4589703,0.40546486,0.123877116,0.29527247,0.5365736,0.28682783,0.28800443,0.0411088,0.35299245,767.5824,757.9121,805.05493,764.35895,1061.7216,1390.9158,-0.233154296875,0.0133056640625,0.96051025390625,-0.3289794921875,-1.801910400390625,0.22430419921875,4.225023443223443E8,3.6721142857142854E8,3410402.9304029304,69.48488,1,1.0,1.0,1.0,1.0,100.00
2025-09-24 18:19:38.617,1.2478455,0.93689686,0.092884295,1.191634,0.72736794,0.26770833,0.038222447,0.94455403,1.1527175,0.40043864,0.32332385,1.4589703,0.40546486,0.123877116,0.29527247,0.5365736,0.28682783,0.28800443,0.0411088,0.35299245,761.9414,757.50916,794.17584,759.92676,1112.0879,1245.0549,-0.233154296875,0.0133056640625,0.96051025390625,-0.3289794921875,-1.801910400390625,0.22430419921875,4.225023443223443E8,3.6721142857142854E8,3410402.9304029304,69.48488,1,1.0,1.0,1.0,1.0,100.00
2025-09-24 18:19:38.618,1.2478455,0.93689686,0.092884295,1.191634,0.72736794,0.26770833,0.038222447,0.94455403,1.1527175,0.40043864,0.32332385,1.4589703,0.40546486,0.123877116,0.29527247,0.5365736,0.28682783,0.28800443,0.0411088,0.35299245,762.74725,811.50183,789.7436,754.68866,1114.5055,1168.4982,-0.233154296875,0.0133056640625,0.96051025390625,-0.3289794921875,-1.801910400390625,0.22430419921875,4.225023443223443E8,3.6721142857142854E8,3410402.9304029304,69.48488,1,1.0,1.0,1.0,1.0,100.00
2025-09-24 18:19:38.620,1.2478455,0.93689686,0.092884295,1.191634,0.72736794,0.26770833,0.038222447,0.94455403,1.1527175,0.40043864,0.32332385,1.4589703,0.40546486,0.123877116,0.29527247,0.5365736,0.28682783,0.28800443,0.0411088,0.35299245,778.86444,778.46155,795.78754,762.74725,1077.4359,1142.7106,-0.233154296875,0.0133056640625,0.96051025390625,-0.3289794921875,-1.801910400390625,0.22430419921875,4.225023443223443E8,3.6721142857142854E8,3410402.9304029304,69.48488,1,1.0,1.0,1.0,1.0,100.00
2025-09-24 18:19:38.621,1.2478455,0.93689686,0.092884295,1.191634,0.72736794,0.26770833,0.038222447,0.94455403,1.1527175,0.40043864,0.32332385,1.4589703,0.40546486,0.123877116,0.29527247,0.5365736,0.28682783,0.28800443,0.0411088,0.35299245,787.326,829.2308,803.0403,774.83514,1098.7913,1145.1282,-0.233154296875,0.0133056640625,0.96051025390625,-0.3289794921875,-1.801910400390625,0.22430419921875,4.225023443223443E8,3.6721142857142854E8,3410402.9304029304,69.48488,1,1.0,1.0,1.0,1.0,100.00
2025-09-24 18:19:38.654,1.2478455,0.93689686,0.092884295,1.191634,0.72736794,0.26770833,0.038222447,0.94455403,1.1527175,0.40043864,0.32332385,1.4589703,0.40546486,0.123877116,0.29527247,0.5365736,0.28682783,0.28800443,0.0411088,0.35299245,776.4469,869.5238,802.23444,770.40295,1176.9597,1198.7179,-0.234130859375,0.01336669921875,0.963134765625,0.456085205078125,-0.95703125,0.575714111328125,4.225023443223443E8,3.6721142857142854E8,3410402.9304029304,69.48488,1,1.0,1.0,1.0,1.0,100.00
2025-09-24 18:19:38.655,1.2478455,0.93689686,0.092884295,1.191634,0.72736794,0.26770833,0.038222447,0.94455403,1.1527175,0.40043864,0.32332385,1.4589703,0.40546486,0.123877116,0.29527247,0.5365736,0.28682783,0.28800443,0.0411088,0.35299245,772.8205,921.0989,796.5934,761.9414,1157.2161,1357.0696,-0.234130859375,0.01336669921875,0.963134765625,0.456085205078125,-0.95703125,0.575714111328125,4.225023443223443E8,3.6721142857142854E8,3410402.9304029304,69.48488,1,1.0,1.0,1.0,1.0,100.00
2025-09-24 18:19:38.655,1.2478455,0.93689686,0.092884295,1.191634,0.72736794,0.26770833,0.038222447,0.94455403,1.1527175,0.40043864,0.32332385,1.4589703,0.40546486,0.123877116,0.29527247,0.5365736,0.28682783,0.28800443,0.0411088,0.35299245,788.5348,831.2454,798.20514,772.8205,1071.7949,1521.0623,-0.234130859375,0.01336669921875,0.963134765625,0.456085205078125,-0.95703125,0.575714111328125,4.225023443223443E8,3.6721142857142854E8,3410402.9304029304,69.48488,1,1.0,1.0,1.0,1.0,100.00
2025-09-24 18:19:38.655,1.2331349,0.93689686,0.16580734,1.1737784,0.6825456,0.26770833,0.07581985,0.954061,1.1036111,0.40043864,0.33159333,1.4453617,0.40825948,0.123877116,0.29418764,0.51704526,0.29813045,0.28800443,0.040488176,0.35215423,796.1905,618.49817,804.65204,788.1319,1007.72894,1196.7032,-0.234130859375,0.01336669921875,0.963134765625,0.456085205078125,-0.95703125,0.575714111328125,4.225023443223443E8,3.6721142857142854E8,3410402.9304029304,69.48488,1,1.0,1.0,1.0,1.0,100.00
2025-09-24 18:19:38.657,1.2331349,0.93689686,0.16580734,1.1737784,0.6825456,0.26770833,0.07581985,0.954061,1.1036111,0.40043864,0.33159333,1.4453617,0.40825948,0.123877116,0.29418764,0.51704526,0.29813045,0.28800443,0.040488176,0.35215423,798.20514,782.49084,807.0696,792.1612,975.09155,964.61536,-0.234130859375,0.01336669921875,0.963134765625,0.456085205078125,-0.95703125,0.575714111328125,4.225023443223443E8,3.6721142857142854E8,3410402.9304029304,69.48488,1,1.0,1.0,1.0,1.0,100.00
2025-09-24 18:19:38.658,1.2331349,0.93689686,0.16580734,1.1737784,0.6825456,0.26770833,0.07581985,0.954061,1.1036111,0.40043864,0.33159333,1.4453617,0.40825948,0.123877116,0.29418764,0.51704526,0.29813045,0.28800443,0.040488176,0.35215423,797.3993,922.71063,805.8608,786.1172,959.7802,1245.4579,-0.234130859375,0.01336669921875,0.963134765625,0.456085205078125,-0.95703125,0.575714111328125,4.225023443223443E8,3.6721142857142854E8,3410402.9304029304,69.48488,1,1.0,1.0,1.0,1.0,100.00
2025-09-24 18:19:38.658,1.2331349,0.93689686,0.16580734,1.1737784,0.6825456,0.26770833,0.07581985,0.954061,1.1036111,0.40043864,0.33159333,1.4453617,0.40825948,0.123877116,0.29418764,0.51704526,0.29813045,0.28800443,0.040488176,0.35215423,791.3553,805.05493,800.2198,776.4469,936.4103,1379.2307,-0.234130859375,0.01336669921875,0.963134765625,0.456085205078125,-0.95703125,0.575714111328125,4.225023443223443E8,3.6721142857142854E8,3410402.9304029304,69.48488,1,1.0,1.0,1.0,1.0,100.00
2025-09-24 18:19:38.658,1.2331349,0.93689686,0.16580734,1.1737784,0.6825456,0.26770833,0.07581985,0.954061,1.1036111,0.40043864,0.33159333,1.4453617,0.40825948,0.123877116,0.29418764,0.51704526,0.29813045,0.28800443,0.040488176,0.35215423,796.99634,692.6374,797.8022,784.90845,953.3333,1138.2784,-0.234130859375,0.01336669921875,0.963134765625,0.456085205078125,-0.95703125,0.575714111328125,4.225023443223443E8,3.6721142857142854E8,3410402.9304029304,69.48488,1,1.0,1.0,1.0,1.0,100.00
2025-09-24 18:19:38.659,1.2331349,0.93689686,0.16580734,1.1737784,0.6825456,0.26770833,0.07581985,0.954061,1.1036111,0.40043864,0.33159333,1.4453617,0.40825948,0.123877116,0.29418764,0.51704526,0.29813045,0.28800443,0.040488176,0.35215423,802.23444,741.39197,794.57874,794.57874,919.4872,904.17584,-0.234130859375,0.01336669921875,0.963134765625,0.456085205078125,-0.95703125,0.575714111328125,4.225023443223443E8,3.6721142857142854E8,3410402.9304029304,69.48488,1,1.0,1.0,1.0,1.0,100.00
2025-09-24 18:19:38.659,1.2331349,0.93689686,0.16580734,1.1737784,0.6825456,0.26770833,0.07581985,0.954061,1.1036111,0.40043864,0.33159333,1.4453617,0.40825948,0.123877116,0.29418764,0.51704526,0.29813045,0.28800443,0.040488176,0.35215423,796.5934,834.4689,795.78754,785.31134,899.34064,893.69965,-0.234130859375,0.01336669921875,0.963134765625,0.456085205078125,-0.95703125,0.575714111328125,4.225023443223443E8,3.6721142857142854E8,3410402.9304029304,69.48488,1,1.0,1.0,1.0,1.0,100.00
2025-09-24 18:19:38.660,1.2331349,0.93689686,0.16580734,1.1737784,0.6825456,0.26770833,0.07581985,0.954061,1.1036111,0.40043864,0.33159333,1.4453617,0.40825948,0.123877116,0.29418764,0.51704526,0.29813045,0.28800443,0.040488176,0.35215423,792.96704,836.4835,800.6227,782.8938,891.28204,878.7912,-0.234130859375,0.01336669921875,0.963134765625,0.456085205078125,-0.95703125,0.575714111328125,4.225023443223443E8,3.6721142857142854E8,3410402.9304029304,69.48488,1,1.0,1.0,1.0,1.0,100.00
2025-09-24 18:19:38.660,1.2331349,0.93689686,0.16580734,1.1737784,0.6825456,0.26770833,0.07581985,0.954061,1.1036111,0.40043864,0.33159333,1.4453617,0.40825948,0.123877116,0.29418764,0.51704526,0.29813045,0.28800443,0.040488176,0.35215423,790.54944,795.78754,802.6374,786.9231,821.1722,837.28937,-0.234130859375,0.01336669921875,0.963134765625,0.456085205078125,-0.95703125,0.575714111328125,4.225023443223443E8,3.6721142857142854E8,3410402.9304029304,69.48488,1,1.0,1.0,1.0,1.0,100.00
2025-09-24 18:19:38.705,1.2331349,0.93689686,0.16580734,1.1737784,0.6825456,0.26770833,0.07581985,0.954061,1.1036111,0.40043864,0.33159333,1.4453617,0.40825948,0.123877116,0.29418764,0.51704526,0.29813045,0.28800443,0.040488176,0.35215423,786.1172,815.12823,803.44324,782.0879,791.3553,798.60803,-0.234130859375,0.01336669921875,0.963134765625,0.456085205078125,-0.95703125,0.575714111328125,4.225023443223443E8,3.672130402930403E8,3482930.4029304027,69.82483,1,1.0,1.0,1.0,1.0,100.00
2025-09-24 18:19:38.705,1.2331349,0.93689686,0.16580734,1.1737784,0.6825456,0.26770833,0.07581985,0.954061,1.1036111,0.40043864,0.33159333,1.4453617,0.40825948,0.123877116,0.29418764,0.51704526,0.29813045,0.28800443,0.040488176,0.35215423,782.49084,873.5531,798.20514,775.2381,833.663,795.38464,-0.234130859375,0.01336669921875,0.963134765625,0.456085205078125,-0.95703125,0.575714111328125,4.225023443223443E8,3.672130402930403E8,3482930.4029304027,69.82483,1,1.0,1.0,1.0,1.0,100.00
2025-09-24 18:19:38.706,1.2331349,0.93689686,0.16580734,1.1737784,0.6825456,0.26770833,0.07581985,0.954061,1.1036111,0.40043864,0.33159333,1.4453617,0.40825948,0.123877116,0.29418764,0.51704526,0.29813045,0.28800443,0.040488176,0.35215423,794.9817,874.7619,794.57874,791.75824,832.0513,774.43225,-0.234130859375,0.01336669921875,0.963134765625,0.456085205078125,-0.95703125,0.575714111328125,4.225023443223443E8,3.672130402930403E8,3482930.4029304027,69.82483,1,1.0,1.0,1.0,1.0,100.00
2025-09-24 18:19:38.706,1.2331349,0.93689686,0.16580734,1.1737784,0.6825456,0.26770833,0.07581985,0.954061,1.1036111,0.40043864,0.33159333,1.4453617,0.40825948,0.123877116,0.29418764,0.51704526,0.29813045,0.28800443,0.040488176,0.35215423,794.57874,830.0366,793.7729,795.78754,823.1868,781.685,-0.234130859375,0.01336669921875,0.963134765625,0.456085205078125,-0.95703125,0.575714111328125,4.225023443223443E8,3.672130402930403E8,3482930.4029304027,69.82483,1,1.0,1.0,1.0,1.0,100.00
2025-09-24 18:19:38.707,1.2331349,0.93689686,0.16580734,1.1737784,0.6825456,0.26770833,0.07581985,0.954061,1.1036111,0.40043864,0.33159333,1.4453617,0.40825948,0.123877116,0.29418764,0.51704526,0.29813045,0.28800443,0.040488176,0.35215423,777.25275,890.87915,798.20514,776.4469,848.5714,928.7546,-0.234130859375,0.01336669921875,0.963134765625,0.456085205078125,-0.95703125,0.575714111328125,4.225023443223443E8,3.672130402930403E8,3482930.4029304027,69.82483,1,1.0,1.0,1.0,1.0,100.00
2025-09-24 18:19:38.707,1.2331349,0.93689686,0.16580734,1.1737784,0.6825456,0.26770833,0.07581985,0.954061,1.1036111,0.40043864,0.33159333,1.4453617,0.40825948,0.123877116,0.29418764,0.51704526,0.29813045,0.28800443,0.040488176,0.35215423,786.9231,895.31134,801.8315,778.0586,840.9158,1153.1868,-0.234130859375,0.01336669921875,0.963134765625,0.456085205078125,-0.95703125,0.575714111328125,4.225023443223443E8,3.672130402930403E8,3482930.4029304027,69.82483,1,1.0,1.0,1.0,1.0,100.00
2025-09-24 18:19:38.707,1.2331349,0.93689686,0.16580734,1.1737784,0.6825456,0.26770833,0.07581985,0.954061,1.1036111,0.40043864,0.33159333,1.4453617,0.40825948,0.123877116,0.29418764,0.51704526,0.29813045,0.28800443,0.040488176,0.35215423,799.81683,827.619,796.1905,781.28204,837.28937,1175.751,-0.234130859375,0.01336669921875,0.963134765625,0.456085205078125,-0.95703125,0.575714111328125,4.225023443223443E8,3.672130402930403E8,3482930.4029304027,69.82483,1,1.0,1.0,1.0,1.0,100.00
2025-09-24 18:19:38.708,1.2331349,0.93689686,0.16580734,1.1737784,0.6825456,0.26770833,0.07581985,0.954061,1.1036111,0.40043864,0.33159333,1.4453617,0.40825948,0.123877116,0.29418764,0.51704526,0.29813045,0.28800443,0.040488176,0.35215423,785.7143,722.0513,787.326,761.9414,884.0293,1038.3517,-0.234130859375,0.01336669921875,0.963134765625,0.456085205078125,-0.95703125,0.575714111328125,4.225023443223443E8,3.672130402930403E8,3482930.4029304027,69.82483,1,1.0,1.0,1.0,1.0,100.00
2025-09-24 18:19:38.708,1.2331349,0.93689686,0.16580734,1.1737784,0.6825456,0.26770833,0.07581985,0.954061,1.1036111,0.40043864,0.33159333,1.4453617,0.40825948,0.123877116,0.29418764,0.51704526,0.29813045,0.28800443,0.040488176,0.35215423,771.2088,682.5641,792.96704,753.8828,892.0879,799.41394,-0.234130859375,0.01336669921875,0.963134765625,0.456085205078125,-0.95703125,0.575714111328125,4.225023443223443E8,3.672130402930403E8,3482930.4029304027,69.82483,1,1.0,1.0,1.0,1.0,100.00
2025-09-24 18:19:38.708,1.2331349,0.93689686,0.16580734,1.1737784,0.6825456,0.26770833,0.07581985,0.954061,1.1036111,0.40043864,0.33159333,1.4453617,0.40825948,0.123877116,0.29418764,0.51704526,0.29813045,0.28800443,0.040488176,0.35215423,771.6117,790.54944,799.011,756.7033,848.5714,722.8571,-0.234130859375,0.01336669921875,0.963134765625,0.456085205078125,-0.95703125,0.575714111328125,4.225023443223443E8,3.672130402930403E8,3482930.4029304027,69.82483,1,1.0,1.0,1.0,1.0,100.00
2025-09-24 18:19:38.709,1.2331349,0.93689686,0.16580734,1.1737784,0.6825456,0.26770833,0.07581985,0.954061,1.1036111,0.40043864,0.33159333,1.4453617,0.40825948,0.123877116,0.29418764,0.51704526,0.29813045,0.28800443,0.040488176,0.35215423,773.6264,834.87177,799.011,759.92676,820.3663,655.16486,-0.234130859375,0.01336669921875,0.963134765625,0.456085205078125,-0.95703125,0.575714111328125,4.225023443223443E8,3.672130402930403E8,3482930.4029304027,69.82483,1,1.0,1.0,1.0,1.0,100.00
2025-09-24 18:19:38.709,1.2331349,0.93689686,0.16580734,1.1737784,0.6825456,0.26770833,0.07581985,0.954061,1.1036111,0.40043864,0.33159333,1.4453617,0.40825948,0.123877116,0.29418764,0.51704526,0.29813045,0.28800443,0.040488176,0.35215423,783.69965,901.3553,799.81683,772.8205,904.17584,823.5897,-0.234130859375,0.01336669921875,0.963134765625,0.456085205078125,-0.95703125,0.575714111328125,4.225023443223443E8,3.672130402930403E8,3482930.4029304027,69.82483,1,1.0,1.0,1.0,1.0,100.00
2025-09-24 18:19:38.764,1.2331349,0.93689686,0.16580734,1.1737784,0.6825456,0.26770833,0.07581985,0.954061,1.1036111,0.40043864,0.33159333,1.4453617,0.40825948,0.123877116,0.29418764,0.51704526,0.29813045,0.28800443,0.040488176,0.35215423,792.1612,846.9597,798.20514,786.1172,973.0769,987.1795,-0.238037109375,0.020263671875,0.9681396484375,0.471038818359375,-0.79254150390625,0.530853271484375,4.225023443223443E8,3.672130402930403E8,3482930.4029304027,69.82483,1,1.0,1.0,1.0,1.0,100.00
2025-09-24 18:19:38.764,1.2331349,0.93689686,0.16580734,1.1737784,0.6825456,0.26770833,0.07581985,0.954061,1.1036111,0.40043864,0.33159333,1.4453617,0.40825948,0.123877116,0.29418764,0.51704526,0.29813045,0.28800443,0.040488176,0.35215423,779.2674,779.2674,797.3993,775.64105,895.7143,864.2857,-0.238037109375,0.020263671875,0.9681396484375,0.471038818359375,-0.79254150390625,0.530853271484375,4.225023443223443E8,3.672130402930403E8,3482930.4029304027,69.82483,1,1.0,1.0,1.0,1.0,100.00
2025-09-24 18:19:38.764,1.2331349,0.93689686,0.16580734,1.1737784,0.6825456,0.26770833,0.07581985,0.954061,1.1036111,0.40043864,0.33159333,1.4453617,0.40825948,0.123877116,0.29418764,0.51704526,0.29813045,0.28800443,0.040488176,0.35215423,778.0586,983.5531,795.38464,763.1502,857.4359,998.0586,-0.238037109375,0.020263671875,0.9681396484375,0.471038818359375,-0.79254150390625,0.530853271484375,4.225023443223443E8,3.672130402930403E8,3482930.4029304027,69.82483,1,1.0,1.0,1.0,1.0,100.00
2025-09-24 18:19:38.765,1.2331349,0.93689686,0.16580734,1.1737784,0.6825456,0.26770833,0.07581985,0.954061,1.1036111,0.40043864,0.33159333,1.4453617,0.40825948,0.123877116,0.29418764,0.51704526,0.29813045,0.28800443,0.040488176,0.35215423,782.49084,853.4066,791.75824,760.32965,905.78754,1120.1465,-0.238037109375,0.020263671875,0.9681396484375,0.471038818359375,-0.79254150390625,0.530853271484375,4.225023443223443E8,3.672130402930403E8,3482930.4029304027,69.82483,1,1.0,1.0,1.0,1.0,100.00
2025-09-24 18:19:38.765,1.2331349,0.93689686,0.16580734,1.1737784,0.6825456,0.26770833,0.07581985,0.954061,1.1036111,0.40043864,0.33159333,1.4453617,0.40825948,0.123877116,0.29418764,0.51704526,0.29813045,0.28800443,0.040488176,0.35215423,794.17584,696.6667,794.17584,774.83514,868.71796,855.82416,-0.238037109375,0.020263671875,0.9681396484375,0.471038818359375,-0.79254150390625,0.530853271484375,4.225023443223443E8,3.672130402930403E8,3482930.4029304027,69.82483,1,1.0,1.0,1.0,1.0,100.00
2025-09-24 18:19:38.765,1.2167236,0.93689686,0.21873273,1.146464,0.67548656,0.26770833,0.11457341,0.96304035,1.1159642,0.40043864,0.33159333,1.4417789,0.42519763,0.123877116,0.28602666,0.49450433,0.29682764,0.28800443,0.03636794,0.3522087,802.23444,929.15753,798.20514,791.3553,835.6777,1088.7179,-0.238037109375,0.020263671875,0.9681396484375,0.471038818359375,-0.79254150390625,0.530853271484375,4.225023443223443E8,3.672130402930403E8,3482930.4029304027,69.82483,1,1.0,1.0,1.0,1.0,100.00
2025-09-24 18:19:38.767,1.2167236,0.93689686,0.21873273,1.146464,0.67548656,0.26770833,0.11457341,0.96304035,1.1159642,0.40043864,0.33159333,1.4417789,0.42519763,0.123877116,0.28602666,0.49450433,0.29682764,0.28800443,0.03636794,0.3522087,795.78754,846.9597,796.5934,784.5055,865.4945,1296.63,-0.238037109375,0.020263671875,0.9681396484375,0.471038818359375,-0.79254150390625,0.530853271484375,4.225023443223443E8,3.672130402930403E8,3482930.4029304027,69.82483,1,1.0,1.0,1.0,1.0,100.00
2025-09-24 18:19:38.767,1.2167236,0.93689686,0.21873273,1.146464,0.67548656,0.26770833,0.11457341,0.96304035,1.1159642,0.40043864,0.33159333,1.4417789,0.42519763,0.123877116,0.28602666,0.49450433,0.29682764,0.28800443,0.03636794,0.3522087,786.9231,678.1319,792.96704,779.67035,879.59705,1033.1135,-0.238037109375,0.020263671875,0.9681396484375,0.471038818359375,-0.79254150390625,0.530853271484375,4.225023443223443E8,3.672130402930403E8,3482930.4029304027,69.82483,1,1.0,1.0,1.0,1.0,100.00
2025-09-24 18:19:38.767,1.2167236,0.93689686,0.21873273,1.146464,0.67548656,0.26770833,0.11457341,0.96304035,1.1159642,0.40043864,0.33159333,1.4417789,0.42519763,0.123877116,0.28602666,0.49450433,0.29682764,0.28800443,0.03636794,0.3522087,785.7143,794.9817,791.75824,778.86444,856.2271,1069.3773,-0.238037109375,0.020263671875,0.9681396484375,0.471038818359375,-0.79254150390625,0.530853271484375,4.225023443223443E8,3.672130402930403E8,3482930.4029304027,69.82483,1,1.0,1.0,1.0,1.0,100.00
2025-09-24 18:19:38.768,1.2167236,0.93689686,0.21873273,1.146464,0.67548656,0.26770833,0.11457341,0.96304035,1.1159642,0.40043864,0.33159333,1.4417789,0.42519763,0.123877116,0.28602666,0.49450433,0.29682764,0.28800443,0.03636794,0.3522087,789.7436,744.61536,792.96704,779.67035,836.4835,874.35895,-0.238037109375,0.020263671875,0.9681396484375,0.471038818359375,-0.79254150390625,0.530853271484375,4.225023443223443E8,3.672130402930403E8,3482930.4029304027,69.82483,1,1.0,1.0,1.0,1.0,100.00
2025-09-24 18:19:38.768,1.2167236,0.93689686,0.21873273,1.146464,0.67548656,0.26770833,0.11457341,0.96304035,1.1159642,0.40043864,0.33159333,1.4417789,0.42519763,0.123877116,0.28602666,0.49450433,0.29682764,0.28800443,0.03636794,0.3522087,797.3993,794.9817,797.3993,795.38464,824.3956,612.0513,-0.238037109375,0.020263671875,0.9681396484375,0.471038818359375,-0.79254150390625,0.530853271484375,4.225023443223443E8,3.672130402930403E8,3482930.4029304027,69.82483,1,1.0,1.0,1.0,1.0,100.00
2025-09-24 18:19:38.768,1.2167236,0.93689686,0.21873273,1.146464,0.67548656,0.26770833,0.11457341,0.96304035,1.1159642,0.40043864,0.33159333,1.4417789,0.42519763,0.123877116,0.28602666,0.49450433,0.29682764,0.28800443,0.03636794,0.3522087,798.60803,864.68866,794.9817,793.7729,821.5751,681.75824,-0.238037109375,0.020263671875,0.9681396484375,0.471038818359375,-0.79254150390625,0.530853271484375,4.225023443223443E8,3.672130402930403E8,3482930.4029304027,69.82483,1,1.0,1.0,1.0,1.0,100.00
2025-09-24 18:19:38.796,1.2167236,0.93689686,0.21873273,1.146464,0.67548656,0.26770833,0.11457341,0.96304035,1.1159642,0.40043864,0.33159333,1.4417789,0.42519763,0.123877116,0.28602666,0.49450433,0.29682764,0.28800443,0.03636794,0.3522087,784.10254,829.2308,793.7729,771.2088,832.8571,776.8498,-0.237548828125,0.0155029296875,0.96368408203125,0.25421142578125,-0.082244873046875,0.11962890625,4.225023443223443E8,3.6730893772893775E8,3425714.2857142854,70.1449,1,1.0,1.0,1.0,1.0,100.00
2025-09-24 18:19:38.796,1.2167236,0.93689686,0.21873273,1.146464,0.67548656,0.26770833,0.11457341,0.96304035,1.1159642,0.40043864,0.33159333,1.4417789,0.42519763,0.123877116,0.28602666,0.49450433,0.29682764,0.28800443,0.03636794,0.3522087,790.54944,800.6227,795.78754,772.4176,882.01465,788.1319,-0.237548828125,0.0155029296875,0.96368408203125,0.25421142578125,-0.082244873046875,0.11962890625,4.225023443223443E8,3.6730893772893775E8,3425714.2857142854,70.1449,1,1.0,1.0,1.0,1.0,100.00
2025-09-24 18:19:38.797,1.2167236,0.93689686,0.21873273,1.146464,0.67548656,0.26770833,0.11457341,0.96304035,1.1159642,0.40043864,0.33159333,1.4417789,0.42519763,0.123877116,0.28602666,0.49450433,0.29682764,0.28800443,0.03636794,0.3522087,799.81683,845.7509,794.57874,782.49084,896.9231,743.00366,-0.237548828125,0.0155029296875,0.96368408203125,0.25421142578125,-0.082244873046875,0.11962890625,4.225023443223443E8,3.6730893772893775E8,3425714.2857142854,70.1449,1,1.0,1.0,1.0,1.0,100.00
2025-09-24 18:19:38.797,1.2167236,0.93689686,0.21873273,1.146464,0.67548656,0.26770833,0.11457341,0.96304035,1.1159642,0.40043864,0.33159333,1.4417789,0.42519763,0.123877116,0.28602666,0.49450433,0.29682764,0.28800443,0.03636794,0.3522087,783.2967,830.0366,791.3553,765.56775,902.1612,815.9341,-0.237548828125,0.0155029296875,0.96368408203125,0.25421142578125,-0.082244873046875,0.11962890625,4.225023443223443E8,3.6730893772893775E8,3425714.2857142854,70.1449,1,1.0,1.0,1.0,1.0,100.00
2025-09-24 18:19:38.797,1.2167236,0.93689686,0.21873273,1.146464,0.67548656,0.26770833,0.11457341,0.96304035,1.1159642,0.40043864,0.33159333,1.4417789,0.42519763,0.123877116,0.28602666,0.49450433,0.29682764,0.28800443,0.03636794,0.3522087,784.5055,807.8755,787.72894,756.30035,911.4286,896.1172,-0.237548828125,0.0155029296875,0.96368408203125,0.25421142578125,-0.082244873046875,0.11962890625,4.225023443223443E8,3.6730893772893775E8,3425714.2857142854,70.1449,1,1.0,1.0,1.0,1.0,100.00
2025-09-24 18:19:38.797,1.2167236,0.93689686,0.21873273,1.146464,0.67548656,0.26770833,0.11457341,0.96304035,1.1159642,0.40043864,0.33159333,1.4417789,0.42519763,0.123877116,0.28602666,0.49450433,0.29682764,0.28800443,0.03636794,0.3522087,790.14655,844.1392,791.3553,763.1502,853.8095,1058.4982,-0.237548828125,0.0155029296875,0.96368408203125,0.25421142578125,-0.082244873046875,0.11962890625,4.225023443223443E8,3.6730893772893775E8,3425714.2857142854,70.1449,1,1.0,1.0,1.0,1.0,100.00
2025-09-24 18:19:38.797,1.2167236,0.93689686,0.21873273,1.146464,0.67548656,0.26770833,0.11457341,0.96304035,1.1159642,0.40043864,0.33159333,1.4417789,0.42519763,0.123877116,0.28602666,0.49450433,0.29682764,0.28800443,0.03636794,0.3522087,780.07324,788.93774,794.57874,757.1062,864.2857,1071.392,-0.237548828125,0.0155029296875,0.96368408203125,0.25421142578125,-0.082244873046875,0.11962890625,4.225023443223443E8,3.6730893772893775E8,3425714.2857142854,70.1449,1,1.0,1.0,1.0,1.0,100.00
2025-09-24 18:19:38.798,1.2167236,0.93689686,0.21873273,1.146464,0.67548656,0.26770833,0.11457341,0.96304035,1.1159642,0.40043864,0.33159333,1.4417789,0.42519763,0.123877116,0.28602666,0.49450433,0.29682764,0.28800443,0.03636794,0.3522087,781.685,716.4103,796.1905,765.56775,896.52014,927.5458,-0.237548828125,0.0155029296875,0.96368408203125,0.25421142578125,-0.082244873046875,0.11962890625,4.225023443223443E8,3.6730893772893775E8,3425714.2857142854,70.1449,1,1.0,1.0,1.0,1.0,100.00
2025-09-24 18:19:38.798,1.2167236,0.93689686,0.21873273,1.146464,0.67548656,0.26770833,0.11457341,0.96304035,1.1159642,0.40043864,0.33159333,1.4417789,0.42519763,0.123877116,0.28602666,0.49450433,0.29682764,0.28800443,0.03636794,0.3522087,794.9817,756.30035,797.8022,776.4469,893.69965,835.2747,-0.237548828125,0.0155029296875,0.96368408203125,0.25421142578125,-0.082244873046875,0.11962890625,4.225023443223443E8,3.6730893772893775E8,3425714.2857142854,70.1449,1,1.0,1.0,1.0,1.0,100.00
2025-09-24 18:19:38.798,1.2167236,0.93689686,0.21873273,1.146464,0.67548656,0.26770833,0.11457341,0.96304035,1.1159642,0.40043864,0.33159333,1.4417789,0.42519763,0.123877116,0.28602666,0.49450433,0.29682764,0.28800443,0.03636794,0.3522087,787.326,793.7729,799.81683,761.9414,957.76556,842.52747,-0.237548828125,0.0155029296875,0.96368408203125,0.25421142578125,-0.082244873046875,0.11962890625,4.225023443223443E8,3.6730893772893775E8,3425714.2857142854,70.1449,1,1.0,1.0,1.0,1.0,100.00
2025-09-24 18:19:38.798,1.2167236,0.93689686,0.21873273,1.146464,0.67548656,0.26770833,0.11457341,0.96304035,1.1159642,0.40043864,0.33159333,1.4417789,0.42519763,0.123877116,0.28602666,0.49450433,0.29682764,0.28800443,0.03636794,0.3522087,777.6557,763.5531,797.8022,757.1062,900.9524,689.81683,-0.237548828125,0.0155029296875,0.96368408203125,0.25421142578125,-0.082244873046875,0.11962890625,4.225023443223443E8,3.6730893772893775E8,3425714.2857142854,70.1449,1,1.0,1.0,1.0,1.0,100.00
2025-09-24 18:19:38.799,1.2167236,0.93689686,0.21873273,1.146464,0.67548656,0.26770833,0.11457341,0.96304035,1.1159642,0.40043864,0.33159333,1.4417789,0.42519763,0.123877116,0.28602666,0.49450433,0.29682764,0.28800443,0.03636794,0.3522087,774.83514,877.98535,793.7729,757.9121,775.2381,795.78754,-0.237548828125,0.0155029296875,0.96368408203125,0.25421142578125,-0.082244873046875,0.11962890625,4.225023443223443E8,3.6730893772893775E8,3425714.2857142854,70.1449,1,1.0,1.0,1.0,1.0,100.00
2025-09-24 18:19:38.853,1.2167236,0.93689686,0.21873273,1.146464,0.67548656,0.26770833,0.11457341,0.96304035,1.1159642,0.40043864,0.33159333,1.4417789,0.42519763,0.123877116,0.28602666,0.49450433,0.29682764,0.28800443,0.03636794,0.3522087,769.59705,824.3956,790.14655,752.27106,816.7399,999.2674,-0.240478515625,0.0123291015625,0.95672607421875,0.04486083984375,-0.1495361328125,0.46356201171875,4.225023443223443E8,3.6730893772893775E8,3425714.2857142854,70.1449,1,1.0,1.0,1.0,1.0,100.00
2025-09-24 18:19:38.854,1.2167236,0.93689686,0.21873273,1.146464,0.67548656,0.26770833,0.11457341,0.96304035,1.1159642,0.40043864,0.33159333,1.4417789,0.42519763,0.123877116,0.28602666,0.49450433,0.29682764,0.28800443,0.03636794,0.3522087,769.19415,738.1685,790.54944,753.0769,875.16486,869.5238,-0.240478515625,0.0123291015625,0.95672607421875,0.04486083984375,-0.1495361328125,0.46356201171875,4.225023443223443E8,3.6730893772893775E8,3425714.2857142854,70.1449,1,1.0,1.0,1.0,1.0,100.00
2025-09-24 18:19:38.854,1.2167236,0.93689686,0.21873273,1.146464,0.67548656,0.26770833,0.11457341,0.96304035,1.1159642,0.40043864,0.33159333,1.4417789,0.42519763,0.123877116,0.28602666,0.49450433,0.29682764,0.28800443,0.03636794,0.3522087,767.98535,842.1245,792.1612,752.674,803.44324,932.381,-0.240478515625,0.0123291015625,0.95672607421875,0.04486083984375,-0.1495361328125,0.46356201171875,4.225023443223443E8,3.6730893772893775E8,3425714.2857142854,70.1449,1,1.0,1.0,1.0,1.0,100.00
2025-09-24 18:19:38.855,1.2167236,0.93689686,0.21873273,1.146464,0.67548656,0.26770833,0.11457341,0.96304035,1.1159642,0.40043864,0.33159333,1.4417789,0.42519763,0.123877116,0.28602666,0.49450433,0.29682764,0.28800443,0.03636794,0.3522087,770.0,739.3773,797.8022,757.50916,792.5641,880.80585,-0.240478515625,0.0123291015625,0.95672607421875,0.04486083984375,-0.1495361328125,0.46356201171875,4.225023443223443E8,3.6730893772893775E8,3425714.2857142854,70.1449,1,1.0,1.0,1.0,1.0,100.00
2025-09-24 18:19:38.855,1.2167236,0.93689686,0.21873273,1.146464,0.67548656,0.26770833,0.11457341,0.96304035,1.1159642,0.40043864,0.33159333,1.4417789,0.42519763,0.123877116,0.28602666,0.49450433,0.29682764,0.28800443,0.03636794,0.3522087,776.8498,784.90845,801.02563,767.5824,865.4945,793.7729,-0.240478515625,0.0123291015625,0.95672607421875,0.04486083984375,-0.1495361328125,0.46356201171875,4.225023443223443E8,3.6730893772893775E8,3425714.2857142854,70.1449,1,1.0,1.0,1.0,1.0,100.00
2025-09-24 18:19:38.856,1.2167236,0.93689686,0.21873273,1.146464,0.67548656,0.26770833,0.11457341,0.96304035,1.1159642,0.40043864,0.33159333,1.4417789,0.42519763,0.123877116,0.28602666,0.49450433,0.29682764,0.28800443,0.03636794,0.3522087,778.86444,923.91943,798.20514,770.0,841.7216,1071.7949,-0.240478515625,0.0123291015625,0.95672607421875,0.04486083984375,-0.1495361328125,0.46356201171875,4.225023443223443E8,3.6730893772893775E8,3425714.2857142854,70.1449,1,1.0,1.0,1.0,1.0,100.00
2025-09-24 18:19:38.856,1.2167236,0.93689686,0.21873273,1.146464,0.67548656,0.26770833,0.11457341,0.96304035,1.1159642,0.40043864,0.33159333,1.4417789,0.42519763,0.123877116,0.28602666,0.49450433,0.29682764,0.28800443,0.03636794,0.3522087,782.49084,786.9231,797.3993,776.4469,802.23444,997.6557,-0.240478515625,0.0123291015625,0.95672607421875,0.04486083984375,-0.1495361328125,0.46356201171875,4.225023443223443E8,3.6730893772893775E8,3425714.2857142854,70.1449,1,1.0,1.0,1.0,1.0,100.00
2025-09-24 18:19:38.856,1.2003417,0.93689686,0.25210667,1.1248239,0.6782001,0.26770833,0.14365363,0.97626776,1.135248,0.40043864,0.33159333,1.438057,0.43675855,0.123877116,0.26886296,0.47282913,0.2904018,0.28800443,0.026222862,0.3480298,789.7436,746.2271,799.011,781.28204,841.7216,774.0293,-0.240478515625,0.0123291015625,0.95672607421875,0.04486083984375,-0.1495361328125,0.46356201171875,4.225023443223443E8,3.6730893772893775E8,3425714.2857142854,70.1449,1,1.0,1.0,1.0,1.0,100.00
2025-09-24 18:19:38.858,1.2003417,0.93689686,0.25210667,1.1248239,0.6782001,0.26770833,0.14365363,0.97626776,1.135248,0.40043864,0.33159333,1.438057,0.43675855,0.123877116,0.26886296,0.47282913,0.2904018,0.28800443,0.026222862,0.3480298,803.0403,815.12823,802.23444,785.31134,834.87177,726.8865,-0.240478515625,0.0123291015625,0.95672607421875,0.04486083984375,-0.1495361328125,0.46356201171875,4.225023443223443E8,3.6730893772893775E8,3425714.2857142854,70.1449,1,1.0,1.0,1.0,1.0,100.00
2025-09-24 18:19:38.858,1.2003417,0.93689686,0.25210667,1.1248239,0.6782001,0.26770833,0.14365363,0.97626776,1.135248,0.40043864,0.33159333,1.438057,0.43675855,0.123877116,0.26886296,0.47282913,0.2904018,0.28800443,0.026222862,0.3480298,807.0696,798.20514,796.99634,778.0586,796.1905,623.73627,-0.240478515625,0.0123291015625,0.95672607421875,0.04486083984375,-0.1495361328125,0.46356201171875,4.225023443223443E8,3.6730893772893775E8,3425714.2857142854,70.1449,1,1.0,1.0,1.0,1.0,100.00
2025-09-24 18:19:38.859,1.2003417,0.93689686,0.25210667,1.1248239,0.6782001,0.26770833,0.14365363,0.97626776,1.135248,0.40043864,0.33159333,1.438057,0.43675855,0.123877116,0.26886296,0.47282913,0.2904018,0.28800443,0.026222862,0.3480298,794.17584,859.45056,789.34064,763.95605,785.7143,538.315,-0.240478515625,0.0123291015625,0.95672607421875,0.04486083984375,-0.1495361328125,0.46356201171875,4.225023443223443E8,3.6730893772893775E8,3425714.2857142854,70.1449,1,1.0,1.0,1.0,1.0,100.00
2025-09-24 18:19:38.859,1.2003417,0.93689686,0.25210667,1.1248239,0.6782001,0.26770833,0.14365363,0.97626776,1.135248,0.40043864,0.33159333,1.438057,0.43675855,0.123877116,0.26886296,0.47282913,0.2904018,0.28800443,0.026222862,0.3480298,799.41394,855.82416,788.5348,777.6557,831.6484,700.293,-0.240478515625,0.0123291015625,0.95672607421875,0.04486083984375,-0.1495361328125,0.46356201171875,4.225023443223443E8,3.6730893772893775E8,3425714.2857142854,70.1449,1,1.0,1.0,1.0,1.0,100.00
2025-09-24 18:19:38.899,1.2003417,0.93689686,0.25210667,1.1248239,0.6782001,0.26770833,0.14365363,0.97626776,1.135248,0.40043864,0.33159333,1.438057,0.43675855,0.123877116,0.26886296,0.47282913,0.2904018,0.28800443,0.026222862,0.3480298,815.12823,807.47253,796.5934,790.14655,901.3553,813.5165,-0.240478515625,0.0123291015625,0.95672607421875,0.04486083984375,-0.1495361328125,0.46356201171875,4.225023443223443E8,3.675539194139194E8,3413626.3736263737,70.44623,1,1.0,1.0,1.0,1.0,100.00
2025-09-24 18:19:38.900,1.2003417,0.93689686,0.25210667,1.1248239,0.6782001,0.26770833,0.14365363,0.97626776,1.135248,0.40043864,0.33159333,1.438057,0.43675855,0.123877116,0.26886296,0.47282913,0.2904018,0.28800443,0.026222862,0.3480298,800.6227,799.81683,792.1612,775.2381,915.4579,749.45056,-0.240478515625,0.0123291015625,0.95672607421875,0.04486083984375,-0.1495361328125,0.46356201171875,4.225023443223443E8,3.675539194139194E8,3413626.3736263737,70.44623,1,1.0,1.0,1.0,1.0,100.00
2025-09-24 18:19:38.900,1.2003417,0.93689686,0.25210667,1.1248239,0.6782001,0.26770833,0.14365363,0.97626776,1.135248,0.40043864,0.33159333,1.438057,0.43675855,0.123877116,0.26886296,0.47282913,0.2904018,0.28800443,0.026222862,0.3480298,791.3553,861.8681,786.9231,772.8205,932.381,797.3993,-0.240478515625,0.0123291015625,0.95672607421875,0.04486083984375,-0.1495361328125,0.46356201171875,4.225023443223443E8,3.675539194139194E8,3413626.3736263737,70.44623,1,1.0,1.0,1.0,1.0,100.00
2025-09-24 18:19:38.900,1.2003417,0.93689686,0.25210667,1.1248239,0.6782001,0.26770833,0.14365363,0.97626776,1.135248,0.40043864,0.33159333,1.438057,0.43675855,0.123877116,0.26886296,0.47282913,0.2904018,0.28800443,0.026222862,0.3480298,804.65204,875.56775,793.36993,786.1172,944.87177,1028.2784,-0.240478515625,0.0123291015625,0.95672607421875,0.04486083984375,-0.1495361328125,0.46356201171875,4.225023443223443E8,3.675539194139194E8,3413626.3736263737,70.44623,1,1.0,1.0,1.0,1.0,100.00
2025-09-24 18:19:38.900,1.2003417,0.93689686,0.25210667,1.1248239,0.6782001,0.26770833,0.14365363,0.97626776,1.135248,0.40043864,0.33159333,1.438057,0.43675855,0.123877116,0.26886296,0.47282913,0.2904018,0.28800443,0.026222862,0.3480298,803.44324,759.92676,797.3993,783.69965,908.20514,939.6337,-0.240478515625,0.0123291015625,0.95672607421875,0.04486083984375,-0.1495361328125,0.46356201171875,4.225023443223443E8,3.675539194139194E8,3413626.3736263737,70.44623,1,1.0,1.0,1.0,1.0,100.00
2025-09-24 18:19:38.901,1.2003417,0.93689686,0.25210667,1.1248239,0.6782001,0.26770833,0.14365363,0.97626776,1.135248,0.40043864,0.33159333,1.438057,0.43675855,0.123877116,0.26886296,0.47282913,0.2904018,0.28800443,0.026222862,0.3480298,783.69965,857.4359,794.17584,772.4176,836.8865,1058.4982,-0.240478515625,0.0123291015625,0.95672607421875,0.04486083984375,-0.1495361328125,0.46356201171875,4.225023443223443E8,3.675539194139194E8,3413626.3736263737,70.44623,1,1.0,1.0,1.0,1.0,100.00
2025-09-24 18:19:38.901,1.2003417,0.93689686,0.25210667,1.1248239,0.6782001,0.26770833,0.14365363,0.97626776,1.135248,0.40043864,0.33159333,1.438057,0.43675855,0.123877116,0.26886296,0.47282913,0.2904018,0.28800443,0.026222862,0.3480298,781.28204,830.4396,788.93774,772.01465,824.7985,1052.8572,-0.240478515625,0.0123291015625,0.95672607421875,0.04486083984375,-0.1495361328125,0.46356201171875,4.225023443223443E8,3.675539194139194E8,3413626.3736263737,70.44623,1,1.0,1.0,1.0,1.0,100.00
2025-09-24 18:19:38.901,1.2003417,0.93689686,0.25210667,1.1248239,0.6782001,0.26770833,0.14365363,0.97626776,1.135248,0.40043864,0.33159333,1.438057,0.43675855,0.123877116,0.26886296,0.47282913,0.2904018,0.28800443,0.026222862,0.3480298,796.99634,716.0073,790.14655,772.01465,876.3736,835.2747,-0.240478515625,0.0123291015625,0.95672607421875,0.04486083984375,-0.1495361328125,0.46356201171875,4.225023443223443E8,3.675539194139194E8,3413626.3736263737,70.44623,1,1.0,1.0,1.0,1.0,100.00
2025-09-24 18:19:38.902,1.2003417,0.93689686,0.25210667,1.1248239,0.6782001,0.26770833,0.14365363,0.97626776,1.135248,0.40043864,0.33159333,1.438057,0.43675855,0.123877116,0.26886296,0.47282913,0.2904018,0.28800443,0.026222862,0.3480298,794.9817,759.12085,792.5641,769.59705,928.7546,778.86444,-0.240478515625,0.0123291015625,0.95672607421875,0.04486083984375,-0.1495361328125,0.46356201171875,4.225023443223443E8,3.675539194139194E8,3413626.3736263737,70.44623,1,1.0,1.0,1.0,1.0,100.00
2025-09-24 18:19:38.902,1.2003417,0.93689686,0.25210667,1.1248239,0.6782001,0.26770833,0.14365363,0.97626776,1.135248,0.40043864,0.33159333,1.438057,0.43675855,0.123877116,0.26886296,0.47282913,0.2904018,0.28800443,0.026222862,0.3480298,780.07324,837.28937,791.3553,765.9707,935.6044,752.674,-0.240478515625,0.0123291015625,0.95672607421875,0.04486083984375,-0.1495361328125,0.46356201171875,4.225023443223443E8,3.675539194139194E8,3413626.3736263737,70.44623,1,1.0,1.0,1.0,1.0,100.00
2025-09-24 18:19:38.902,1.2003417,0.93689686,0.25210667,1.1248239,0.6782001,0.26770833,0.14365363,0.97626776,1.135248,0.40043864,0.33159333,1.438057,0.43675855,0.123877116,0.26886296,0.47282913,0.2904018,0.28800443,0.026222862,0.3480298,779.67035,857.4359,792.1612,766.3736,877.98535,646.30035,-0.240478515625,0.0123291015625,0.95672607421875,0.04486083984375,-0.1495361328125,0.46356201171875,4.225023443223443E8,3.675539194139194E8,3413626.3736263737,70.44623,1,1.0,1.0,1.0,1.0,100.00
2025-09-24 18:19:38.902,1.2003417,0.93689686,0.25210667,1.1248239,0.6782001,0.26770833,0.14365363,0.97626776,1.135248,0.40043864,0.33159333,1.438057,0.43675855,0.123877116,0.26886296,0.47282913,0.2904018,0.28800443,0.026222862,0.3480298,789.34064,877.98535,799.011,768.3883,849.3773,726.08057,-0.240478515625,0.0123291015625,0.95672607421875,0.04486083984375,-0.1495361328125,0.46356201171875,4.225023443223443E8,3.675539194139194E8,3413626.3736263737,70.44623,1,1.0,1.0,1.0,1.0,100.00
2025-09-24 18:19:38.925,1.2003417,0.93689686,0.25210667,1.1248239,0.6782001,0.26770833,0.14365363,0.97626776,1.135248,0.40043864,0.33159333,1.438057,0.43675855,0.123877116,0.26886296,0.47282913,0.2904018,0.28800443,0.026222862,0.3480298,785.31134,812.71063,804.2491,760.32965,877.98535,792.5641,-0.238525390625,0.0137939453125,0.95703125,-0.0,-0.844879150390625,1.009368896484375,4.225023443223443E8,3.675539194139194E8,3413626.3736263737,70.44623,1,1.0,1.0,1.0,1.0,100.00
2025-09-24 18:19:38.925,1.2003417,0.93689686,0.25210667,1.1248239,0.6782001,0.26770833,0.14365363,0.97626776,1.135248,0.40043864,0.33159333,1.438057,0.43675855,0.123877116,0.26886296,0.47282913,0.2904018,0.28800443,0.026222862,0.3480298,768.3883,804.2491,795.78754,747.4359,817.1429,680.54944,-0.238525390625,0.0137939453125,0.95703125,-0.0,-0.844879150390625,1.009368896484375,4.225023443223443E8,3.675539194139194E8,3413626.3736263737,70.44623,1,1.0,1.0,1.0,1.0,100.00
2025-09-24 18:19:38.926,1.2003417,0.93689686,0.25210667,1.1248239,0.6782001,0.26770833,0.14365363,0.97626776,1.135248,0.40043864,0.33159333,1.438057,0.43675855,0.123877116,0.26886296,0.47282913,0.2904018,0.28800443,0.026222862,0.3480298,768.7912,948.0952,797.3993,751.4652,773.6264,865.09155,-0.238525390625,0.0137939453125,0.95703125,-0.0,-0.844879150390625,1.009368896484375,4.225023443223443E8,3.675539194139194E8,3413626.3736263737,70.44623,1,1.0,1.0,1.0,1.0,100.00
2025-09-24 18:19:38.926,1.2003417,0.93689686,0.25210667,1.1248239,0.6782001,0.26770833,0.14365363,0.97626776,1.135248,0.40043864,0.33159333,1.438057,0.43675855,0.123877116,0.26886296,0.47282913,0.2904018,0.28800443,0.026222862,0.3480298,778.46155,756.7033,801.8315,764.7619,782.0879,881.6117,-0.238525390625,0.0137939453125,0.95703125,-0.0,-0.844879150390625,1.009368896484375,4.225023443223443E8,3.675539194139194E8,3413626.3736263737,70.44623,1,1.0,1.0,1.0,1.0,100.00
2025-09-24 18:19:38.926,1.2003417,0.93689686,0.25210667,1.1248239,0.6782001,0.26770833,0.14365363,0.97626776,1.135248,0.40043864,0.33159333,1.438057,0.43675855,0.123877116,0.26886296,0.47282913,0.2904018,0.28800443,0.026222862,0.3480298,773.22345,735.7509,797.8022,757.50916,802.23444,722.8571,-0.238525390625,0.0137939453125,0.95703125,-0.0,-0.844879150390625,1.009368896484375,4.225023443223443E8,3.675539194139194E8,3413626.3736263737,70.44623,1,1.0,1.0,1.0,1.0,100.00
2025-09-24 18:19:38.927,1.2003417,0.93689686,0.25210667,1.1248239,0.6782001,0.26770833,0.14365363,0.97626776,1.135248,0.40043864,0.33159333,1.438057,0.43675855,0.123877116,0.26886296,0.47282913,0.2904018,0.28800443,0.026222862,0.3480298,761.53845,870.7326,793.7729,740.18317,766.77655,869.92676,-0.238525390625,0.0137939453125,0.95703125,-0.0,-0.844879150390625,1.009368896484375,4.225023443223443E8,3.675539194139194E8,3413626.3736263737,70.44623,1,1.0,1.0,1.0,1.0,100.00
2025-09-24 18:19:38.927,1.2003417,0.93689686,0.25210667,1.1248239,0.6782001,0.26770833,0.14365363,0.97626776,1.135248,0.40043864,0.33159333,1.438057,0.43675855,0.123877116,0.26886296,0.47282913,0.2904018,0.28800443,0.026222862,0.3480298,759.12085,798.20514,788.1319,740.58606,772.01465,805.8608,-0.238525390625,0.0137939453125,0.95703125,-0.0,-0.844879150390625,1.009368896484375,4.225023443223443E8,3.675539194139194E8,3413626.3736263737,70.44623,1,1.0,1.0,1.0,1.0,100.00
2025-09-24 18:19:38.927,1.2003417,0.93689686,0.25210667,1.1248239,0.6782001,0.26770833,0.14365363,0.97626776,1.135248,0.40043864,0.33159333,1.438057,0.43675855,0.123877116,0.26886296,0.47282913,0.2904018,0.28800443,0.026222862,0.3480298,768.7912,876.77655,787.72894,750.65936,826.0073,1019.81683,-0.238525390625,0.0137939453125,0.95703125,-0.0,-0.844879150390625,1.009368896484375,4.225023443223443E8,3.675539194139194E8,3413626.3736263737,70.44623,1,1.0,1.0,1.0,1.0,100.00
2025-09-24 18:19:38.927,1.2003417,0.93689686,0.25210667,1.1248239,0.6782001,0.26770833,0.14365363,0.97626776,1.135248,0.40043864,0.33159333,1.438057,0.43675855,0.123877116,0.26886296,0.47282913,0.2904018,0.28800443,0.026222862,0.3480298,777.6557,748.24176,792.96704,761.53845,869.92676,905.38464,-0.238525390625,0.0137939453125,0.95703125,-0.0,-0.844879150390625,1.009368896484375,4.225023443223443E8,3.675539194139194E8,3413626.3736263737,70.44623,1,1.0,1.0,1.0,1.0,100.00
2025-09-24 18:19:38.928,1.1598911,0.93689686,0.27511567,1.1099643,0.6848247,0.26770833,0.15622048,0.99071753,1.1133645,0.40043864,0.32566646,1.4160371,0.4351488,0.123877116,0.24409163,0.45384493,0.2690599,0.28800443,0.009276478,0.33634466,774.83514,735.7509,799.011,764.7619,838.0952,624.1392,-0.238525390625,0.0137939453125,0.95703125,-0.0,-0.844879150390625,1.009368896484375,4.225023443223443E8,3.675539194139194E8,3413626.3736263737,70.44623,1,1.0,1.0,1.0,1.0,100.00
2025-09-24 18:19:38.929,1.1598911,0.93689686,0.27511567,1.1099643,0.6848247,0.26770833,0.15622048,0.99071753,1.1133645,0.40043864,0.32566646,1.4160371,0.4351488,0.123877116,0.24409163,0.45384493,0.2690599,0.28800443,0.009276478,0.33634466,767.98535,867.50916,801.8315,756.7033,811.50183,681.3553,-0.238525390625,0.0137939453125,0.95703125,-0.0,-0.844879150390625,1.009368896484375,4.225023443223443E8,3.675539194139194E8,3413626.3736263737,70.44623,1,1.0,1.0,1.0,1.0,100.00
2025-09-24 18:19:38.929,1.1598911,0.93689686,0.27511567,1.1099643,0.6848247,0.26770833,0.15622048,0.99071753,1.1133645,0.40043864,0.32566646,1.4160371,0.4351488,0.123877116,0.24409163,0.45384493,0.2690599,0.28800443,0.009276478,0.33634466,761.9414,860.2564,794.9817,748.6447,873.95605,770.40295,-0.238525390625,0.0137939453125,0.95703125,-0.0,-0.844879150390625,1.009368896484375,4.225023443223443E8,3.675539194139194E8,3413626.3736263737,70.44623,1,1.0,1.0,1.0,1.0,100.00
2025-09-24 18:19:38.980,1.1598911,0.93689686,0.27511567,1.1099643,0.6848247,0.26770833,0.15622048,0.99071753,1.1133645,0.40043864,0.32566646,1.4160371,0.4351488,0.123877116,0.24409163,0.45384493,0.2690599,0.28800443,0.009276478,0.33634466,763.1502,788.5348,788.93774,754.68866,889.67035,768.3883,-0.2415771484375,0.01727294921875,0.95947265625,0.710296630859375,-0.949554443359375,1.03179931640625,4.225023443223443E8,3.677658608058608E8,3493406.5934065934,70.72992,1,1.0,1.0,1.0,1.0,100.00
2025-09-24 18:19:38.981,1.1598911,0.93689686,0.27511567,1.1099643,0.6848247,0.26770833,0.15622048,0.99071753,1.1133645,0.40043864,0.32566646,1.4160371,0.4351488,0.123877116,0.24409163,0.45384493,0.2690599,0.28800443,0.009276478,0.33634466,769.19415,823.1868,792.1612,770.40295,875.56775,725.2747,-0.2415771484375,0.01727294921875,0.95947265625,0.710296630859375,-0.949554443359375,1.03179931640625,4.225023443223443E8,3.677658608058608E8,3493406.5934065934,70.72992,1,1.0,1.0,1.0,1.0,100.00
2025-09-24 18:19:38.981,1.1598911,0.93689686,0.27511567,1.1099643,0.6848247,0.26770833,0.15622048,0.99071753,1.1133645,0.40043864,0.32566646,1.4160371,0.4351488,0.123877116,0.24409163,0.45384493,0.2690599,0.28800443,0.009276478,0.33634466,780.87915,911.02563,802.23444,784.90845,891.28204,753.8828,-0.2415771484375,0.01727294921875,0.95947265625,0.710296630859375,-0.949554443359375,1.03179931640625,4.225023443223443E8,3.677658608058608E8,3493406.5934065934,70.72992,1,1.0,1.0,1.0,1.0,100.00
2025-09-24 18:19:38.981,1.1598911,0.93689686,0.27511567,1.1099643,0.6848247,0.26770833,0.15622048,0.99071753,1.1133645,0.40043864,0.32566646,1.4160371,0.4351488,0.123877116,0.24409163,0.45384493,0.2690599,0.28800443,0.009276478,0.33634466,780.07324,820.7692,804.2491,778.0586,834.0659,727.28937,-0.2415771484375,0.01727294921875,0.95947265625,0.710296630859375,-0.949554443359375,1.03179931640625,4.225023443223443E8,3.677658608058608E8,3493406.5934065934,70.72992,1,1.0,1.0,1.0,1.0,100.00
2025-09-24 18:19:38.982,1.1598911,0.93689686,0.27511567,1.1099643,0.6848247,0.26770833,0.15622048,0.99071753,1.1133645,0.40043864,0.32566646,1.4160371,0.4351488,0.123877116,0.24409163,0.45384493,0.2690599,0.28800443,0.009276478,0.33634466,781.685,824.7985,797.3993,770.80585,796.1905,705.5311,-0.2415771484375,0.01727294921875,0.95947265625,0.710296630859375,-0.949554443359375,1.03179931640625,4.225023443223443E8,3.677658608058608E8,3493406.5934065934,70.72992,1,1.0,1.0,1.0,1.0,100.00
2025-09-24 18:19:38.982,1.1598911,0.93689686,0.27511567,1.1099643,0.6848247,0.26770833,0.15622048,0.99071753,1.1133645,0.40043864,0.32566646,1.4160371,0.4351488,0.123877116,0.24409163,0.45384493,0.2690599,0.28800443,0.009276478,0.33634466,793.7729,952.52747,796.99634,790.14655,793.36993,1005.7143,-0.2415771484375,0.01727294921875,0.95947265625,0.710296630859375,-0.949554443359375,1.03179931640625,4.225023443223443E8,3.677658608058608E8,3493406.5934065934,70.72992,1,1.0,1.0,1.0,1.0,100.00
2025-09-24 18:19:38.982,1.1598911,0.93689686,0.27511567,1.1099643,0.6848247,0.26770833,0.15622048,0.99071753,1.1133645,0.40043864,0.32566646,1.4160371,0.4351488,0.123877116,0.24409163,0.45384493,0.2690599,0.28800443,0.009276478,0.33634466,791.3553,830.4396,801.4286,791.75824,848.1685,1194.6886,-0.2415771484375,0.01727294921875,0.95947265625,0.710296630859375,-0.949554443359375,1.03179931640625,4.225023443223443E8,3.677658608058608E8,3493406.5934065934,70.72992,1,1.0,1.0,1.0,1.0,100.00
2025-09-24 18:19:38.982,1.1598911,0.93689686,0.27511567,1.1099643,0.6848247,0.26770833,0.15622048,0.99071753,1.1133645,0.40043864,0.32566646,1.4160371,0.4351488,0.123877116,0.24409163,0.45384493,0.2690599,0.28800443,0.009276478,0.33634466,778.0586,658.3883,800.2198,771.2088,886.8498,981.53845,-0.2415771484375,0.01727294921875,0.95947265625,0.710296630859375,-0.949554443359375,1.03179931640625,4.225023443223443E8,3.677658608058608E8,3493406.5934065934,70.72992,1,1.0,1.0,1.0,1.0,100.00
2025-09-24 18:19:38.983,1.1598911,0.93689686,0.27511567,1.1099643,0.6848247,0.26770833,0.15622048,0.99071753,1.1133645,0.40043864,0.32566646,1.4160371,0.4351488,0.123877116,0.24409163,0.45384493,0.2690599,0.28800443,0.009276478,0.33634466,778.0586,722.0513,798.60803,767.1795,873.5531,723.663,-0.2415771484375,0.01727294921875,0.95947265625,0.710296630859375,-0.949554443359375,1.03179931640625,4.225023443223443E8,3.677658608058608E8,3493406.5934065934,70.72992,1,1.0,1.0,1.0,1.0,100.00
2025-09-24 18:19:38.983,1.1598911,0.93689686,0.27511567,1.1099643,0.6848247,0.26770833,0.15622048,0.99071753,1.1133645,0.40043864,0.32566646,1.4160371,0.4351488,0.123877116,0.24409163,0.45384493,0.2690599,0.28800443,0.009276478,0.33634466,791.3553,855.82416,799.011,782.8938,904.57874,836.8865,-0.2415771484375,0.01727294921875,0.95947265625,0.710296630859375,-0.949554443359375,1.03179931640625,4.225023443223443E8,3.677658608058608E8,3493406.5934065934,70.72992,1,1.0,1.0,1.0,1.0,100.00
2025-09-24 18:19:38.983,1.1598911,0.93689686,0.27511567,1.1099643,0.6848247,0.26770833,0.15622048,0.99071753,1.1133645,0.40043864,0.32566646,1.4160371,0.4351488,0.123877116,0.24409163,0.45384493,0.2690599,0.28800443,0.009276478,0.33634466,789.7436,814.7253,796.99634,784.90845,932.7839,1014.17584,-0.2415771484375,0.01727294921875,0.95947265625,0.710296630859375,-0.949554443359375,1.03179931640625,4.225023443223443E8,3.677658608058608E8,3493406.5934065934,70.72992,1,1.0,1.0,1.0,1.0,100.00
2025-09-24 18:19:38.984,1.1598911,0.93689686,0.27511567,1.1099643,0.6848247,0.26770833,0.15622048,0.99071753,1.1133645,0.40043864,0.32566646,1.4160371,0.4351488,0.123877116,0.24409163,0.45384493,0.2690599,0.28800443,0.009276478,0.33634466,784.10254,726.8865,794.57874,772.8205,929.9634,807.0696,-0.2415771484375,0.01727294921875,0.95947265625,0.710296630859375,-0.949554443359375,1.03179931640625,4.225023443223443E8,3.677658608058608E8,3493406.5934065934,70.72992,1,1.0,1.0,1.0,1.0,100.00
2025-09-24 18:19:39.026,1.1598911,0.93689686,0.27511567,1.1099643,0.6848247,0.26770833,0.15622048,0.99071753,1.1133645,0.40043864,0.32566646,1.4160371,0.4351488,0.123877116,0.24409163,0.45384493,0.2690599,0.28800443,0.009276478,0.33634466,784.90845,801.8315,798.60803,771.6117,888.0586,761.9414,-0.24420166015625,0.01959228515625,0.954833984375,0.650482177734375,-0.777587890625,0.201873779296875,4.225023443223443E8,3.677658608058608E8,3493406.5934065934,70.72992,1,1.0,1.0,1.0,1.0,100.00
2025-09-24 18:19:39.027,1.1598911,0.93689686,0.27511567,1.1099643,0.6848247,0.26770833,0.15622048,0.99071753,1.1133645,0.40043864,0.32566646,1.4160371,0.4351488,0.123877116,0.24409163,0.45384493,0.2690599,0.28800443,0.009276478,0.33634466,792.5641,802.23444,798.20514,782.0879,853.00366,727.28937,-0.24420166015625,0.01959228515625,0.954833984375,0.650482177734375,-0.777587890625,0.201873779296875,4.225023443223443E8,3.677658608058608E8,3493406.5934065934,70.72992,1,1.0,1.0,1.0,1.0,100.00
2025-09-24 18:19:39.027,1.1598911,0.93689686,0.27511567,1.1099643,0.6848247,0.26770833,0.15622048,0.99071753,1.1133645,0.40043864,0.32566646,1.4160371,0.4351488,0.123877116,0.24409163,0.45384493,0.2690599,0.28800443,0.009276478,0.33634466,794.57874,978.315,792.5641,778.0586,836.8865,877.5824,-0.24420166015625,0.01959228515625,0.954833984375,0.650482177734375,-0.777587890625,0.201873779296875,4.225023443223443E8,3.677658608058608E8,3493406.5934065934,70.72992,1,1.0,1.0,1.0,1.0,100.00
2025-09-24 18:19:39.027,1.1598911,0.93689686,0.27511567,1.1099643,0.6848247,0.26770833,0.15622048,0.99071753,1.1133645,0.40043864,0.32566646,1.4160371,0.4351488,0.123877116,0.24409163,0.45384493,0.2690599,0.28800443,0.009276478,0.33634466,794.17584,831.2454,796.99634,771.6117,832.8571,972.674,-0.24420166015625,0.01959228515625,0.954833984375,0.650482177734375,-0.777587890625,0.201873779296875,4.225023443223443E8,3.677658608058608E8,3493406.5934065934,70.72992,1,1.0,1.0,1.0,1.0,100.00
2025-09-24 18:19:39.028,1.1598911,0.93689686,0.27511567,1.1099643,0.6848247,0.26770833,0.15622048,0.99071753,1.1133645,0.40043864,0.32566646,1.4160371,0.4351488,0.123877116,0.24409163,0.45384493,0.2690599,0.28800443,0.009276478,0.33634466,792.96704,685.38464,796.5934,767.98535,784.5055,687.3993,-0.24420166015625,0.01959228515625,0.954833984375,0.650482177734375,-0.777587890625,0.201873779296875,4.225023443223443E8,3.677658608058608E8,3493406.5934065934,70.72992,1,1.0,1.0,1.0,1.0,100.00
2025-09-24 18:19:39.028,1.1598911,0.93689686,0.27511567,1.1099643,0.6848247,0.26770833,0.15622048,0.99071753,1.1133645,0.40043864,0.32566646,1.4160371,0.4351488,0.123877116,0.24409163,0.45384493,0.2690599,0.28800443,0.009276478,0.33634466,788.1319,948.49817,794.57874,761.9414,833.663,1014.9817,-0.24420166015625,0.01959228515625,0.954833984375,0.650482177734375,-0.777587890625,0.201873779296875,4.225023443223443E8,3.677658608058608E8,3493406.5934065934,70.72992,1,1.0,1.0,1.0,1.0,100.00
2025-09-24 18:19:39.028,1.1598911,0.93689686,0.27511567,1.1099643,0.6848247,0.26770833,0.15622048,0.99071753,1.1133645,0.40043864,0.32566646,1.4160371,0.4351488,0.123877116,0.24409163,0.45384493,0.2690599,0.28800443,0.009276478,0.33634466,785.31134,898.93774,801.4286,757.1062,888.0586,1312.7472,-0.24420166015625,0.01959228515625,0.954833984375,0.650482177734375,-0.777587890625,0.201873779296875,4.225023443223443E8,3.677658608058608E8,3493406.5934065934,70.72992,1,1.0,1.0,1.0,1.0,100.00
2025-09-24 18:19:39.029,1.1598911,0.93689686,0.27511567,1.1099643,0.6848247,0.26770833,0.15622048,0.99071753,1.1133645,0.40043864,0.32566646,1.4160371,0.4351488,0.123877116,0.24409163,0.45384493,0.2690599,0.28800443,0.009276478,0.33634466,776.04395,669.67035,797.3993,751.4652,890.07324,1079.8535,-0.24420166015625,0.01959228515625,0.954833984375,0.650482177734375,-0.777587890625,0.201873779296875,4.225023443223443E8,3.677658608058608E8,3493406.5934065934,70.72992,1,1.0,1.0,1.0,1.0,100.00
2025-09-24 18:19:39.029,1.1598911,0.93689686,0.27511567,1.1099643,0.6848247,0.26770833,0.15622048,0.99071753,1.1133645,0.40043864,0.32566646,1.4160371,0.4351488,0.123877116,0.24409163,0.45384493,0.2690599,0.28800443,0.009276478,0.33634466,770.80585,651.53845,786.1172,752.27106,848.97437,709.9634,-0.24420166015625,0.01959228515625,0.954833984375,0.650482177734375,-0.777587890625,0.201873779296875,4.225023443223443E8,3.677658608058608E8,3493406.5934065934,70.72992,1,1.0,1.0,1.0,1.0,100.00
2025-09-24 18:19:39.029,1.1598911,0.93689686,0.27511567,1.1099643,0.6848247,0.26770833,0.15622048,0.99071753,1.1133645,0.40043864,0.32566646,1.4160371,0.4351488,0.123877116,0.24409163,0.45384493,0.2690599,0.28800443,0.009276478,0.33634466,779.2674,803.0403,790.54944,758.71796,834.0659,625.34796,-0.24420166015625,0.01959228515625,0.954833984375,0.650482177734375,-0.777587890625,0.201873779296875,4.225023443223443E8,3.677658608058608E8,3493406.5934065934,70.72992,1,1.0,1.0,1.0,1.0,100.00
2025-09-24 18:19:39.029,1.1598911,0.93689686,0.27511567,1.1099643,0.6848247,0.26770833,0.15622048,0.99071753,1.1133645,0.40043864,0.32566646,1.4160371,0.4351488,0.123877116,0.24409163,0.45384493,0.2690599,0.28800443,0.009276478,0.33634466,781.685,855.0183,794.57874,757.50916,861.06226,674.10254,-0.24420166015625,0.01959228515625,0.954833984375,0.650482177734375,-0.777587890625,0.201873779296875,4.225023443223443E8,3.677658608058608E8,3493406.5934065934,70.72992,1,1.0,1.0,1.0,1.0,100.00
2025-09-24 18:19:39.030,1.1153696,0.93689686,0.2893743,1.100329,0.6875288,0.26770833,0.15458454,1.0012535,1.0960621,0.40043864,0.29557616,1.4134043,0.43451428,0.123877116,0.21685271,0.43973657,0.23801336,0.28800443,-0.0110849645,0.3196308,772.4176,839.707,794.9817,751.4652,884.83514,724.87177,-0.24420166015625,0.01959228515625,0.954833984375,0.650482177734375,-0.777587890625,0.201873779296875,4.225023443223443E8,3.677658608058608E8,3493406.5934065934,70.72992,1,1.0,1.0,1.0,1.0,100.00
2025-09-24 18:19:39.085,1.1153696,0.93689686,0.2893743,1.100329,0.6875288,0.26770833,0.15458454,1.0012535,1.0960621,0.40043864,0.29557616,1.4134043,0.43451428,0.123877116,0.21685271,0.43973657,0.23801336,0.28800443,-0.0110849645,0.3196308,772.01465,811.0989,798.20514,755.4945,839.707,774.83514,-0.24505615234375,0.0146484375,0.95989990234375,1.024322509765625,-0.64300537109375,-0.276641845703125,4.225023443223443E8,3.6804227106227106E8,3450695.9706959706,70.99701,1,1.0,1.0,1.0,1.0,100.00
2025-09-24 18:19:39.086,1.1153696,0.93689686,0.2893743,1.100329,0.6875288,0.26770833,0.15458454,1.0012535,1.0960621,0.40043864,0.29557616,1.4134043,0.43451428,0.123877116,0.21685271,0.43973657,0.23801336,0.28800443,-0.0110849645,0.3196308,776.8498,843.3333,800.2198,761.53845,796.1905,883.22345,-0.24505615234375,0.0146484375,0.95989990234375,1.024322509765625,-0.64300537109375,-0.276641845703125,4.225023443223443E8,3.6804227106227106E8,3450695.9706959706,70.99701,1,1.0,1.0,1.0,1.0,100.00
2025-09-24 18:19:39.086,1.1153696,0.93689686,0.2893743,1.100329,0.6875288,0.26770833,0.15458454,1.0012535,1.0960621,0.40043864,0.29557616,1.4134043,0.43451428,0.123877116,0.21685271,0.43973657,0.23801336,0.28800443,-0.0110849645,0.3196308,765.16486,768.7912,794.57874,757.9121,836.08057,750.2564,-0.24505615234375,0.0146484375,0.95989990234375,1.024322509765625,-0.64300537109375,-0.276641845703125,4.225023443223443E8,3.6804227106227106E8,3450695.9706959706,70.99701,1,1.0,1.0,1.0,1.0,100.00
2025-09-24 18:19:39.086,1.1153696,0.93689686,0.2893743,1.100329,0.6875288,0.26770833,0.15458454,1.0012535,1.0960621,0.40043864,0.29557616,1.4134043,0.43451428,0.123877116,0.21685271,0.43973657,0.23801336,0.28800443,-0.0110849645,0.3196308,761.9414,805.05493,795.38464,758.71796,840.5128,693.44324,-0.24505615234375,0.0146484375,0.95989990234375,1.024322509765625,-0.64300537109375,-0.276641845703125,4.225023443223443E8,3.6804227106227106E8,3450695.9706959706,70.99701,1,1.0,1.0,1.0,1.0,100.00
2025-09-24 18:19:39.086,1.1153696,0.93689686,0.2893743,1.100329,0.6875288,0.26770833,0.15458454,1.0012535,1.0960621,0.40043864,0.29557616,1.4134043,0.43451428,0.123877116,0.21685271,0.43973657,0.23801336,0.28800443,-0.0110849645,0.3196308,770.40295,889.2674,793.7729,765.56775,870.32965,844.94507,-0.24505615234375,0.0146484375,0.95989990234375,1.024322509765625,-0.64300537109375,-0.276641845703125,4.225023443223443E8,3.6804227106227106E8,3450695.9706959706,70.99701,1,1.0,1.0,1.0,1.0,100.00
2025-09-24 18:19:39.087,1.1153696,0.93689686,0.2893743,1.100329,0.6875288,0.26770833,0.15458454,1.0012535,1.0960621,0.40043864,0.29557616,1.4134043,0.43451428,0.123877116,0.21685271,0.43973657,0.23801336,0.28800443,-0.0110849645,0.3196308,772.01465,867.1062,792.5641,766.3736,867.9121,1042.7839,-0.24505615234375,0.0146484375,0.95989990234375,1.024322509765625,-0.64300537109375,-0.276641845703125,4.225023443223443E8,3.6804227106227106E8,3450695.9706959706,70.99701,1,1.0,1.0,1.0,1.0,100.00
2025-09-24 18:19:39.087,1.1153696,0.93689686,0.2893743,1.100329,0.6875288,0.26770833,0.15458454,1.0012535,1.0960621,0.40043864,0.29557616,1.4134043,0.43451428,0.123877116,0.21685271,0.43973657,0.23801336,0.28800443,-0.0110849645,0.3196308,782.0879,769.59705,799.41394,769.59705,836.8865,1066.9597,-0.24505615234375,0.0146484375,0.95989990234375,1.024322509765625,-0.64300537109375,-0.276641845703125,4.225023443223443E8,3.6804227106227106E8,3450695.9706959706,70.99701,1,1.0,1.0,1.0,1.0,100.00
2025-09-24 18:19:39.087,1.1153696,0.93689686,0.2893743,1.100329,0.6875288,0.26770833,0.15458454,1.0012535,1.0960621,0.40043864,0.29557616,1.4134043,0.43451428,0.123877116,0.21685271,0.43973657,0.23801336,0.28800443,-0.0110849645,0.3196308,789.34064,728.9011,796.99634,770.40295,852.6007,879.59705,-0.24505615234375,0.0146484375,0.95989990234375,1.024322509765625,-0.64300537109375,-0.276641845703125,4.225023443223443E8,3.6804227106227106E8,3450695.9706959706,70.99701,1,1.0,1.0,1.0,1.0,100.00
2025-09-24 18:19:39.087,1.1153696,0.93689686,0.2893743,1.100329,0.6875288,0.26770833,0.15458454,1.0012535,1.0960621,0.40043864,0.29557616,1.4134043,0.43451428,0.123877116,0.21685271,0.43973657,0.23801336,0.28800443,-0.0110849645,0.3196308,786.52014,795.38464,794.9817,771.6117,904.9817,800.6227,-0.24505615234375,0.0146484375,0.95989990234375,1.024322509765625,-0.64300537109375,-0.276641845703125,4.225023443223443E8,3.6804227106227106E8,3450695.9706959706,70.99701,1,1.0,1.0,1.0,1.0,100.00
2025-09-24 18:19:39.088,1.1153696,0.93689686,0.2893743,1.100329,0.6875288,0.26770833,0.15458454,1.0012535,1.0960621,0.40043864,0.29557616,1.4134043,0.43451428,0.123877116,0.21685271,0.43973657,0.23801336,0.28800443,-0.0110849645,0.3196308,797.8022,816.7399,801.8315,782.49084,944.87177,830.0366,-0.24505615234375,0.0146484375,0.95989990234375,1.024322509765625,-0.64300537109375,-0.276641845703125,4.225023443223443E8,3.6804227106227106E8,3450695.9706959706,70.99701,1,1.0,1.0,1.0,1.0,100.00
2025-09-24 18:19:39.088,1.1153696,0.93689686,0.2893743,1.100329,0.6875288,0.26770833,0.15458454,1.0012535,1.0960621,0.40043864,0.29557616,1.4134043,0.43451428,0.123877116,0.21685271,0.43973657,0.23801336,0.28800443,-0.0110849645,0.3196308,801.4286,792.5641,803.44324,780.87915,921.50183,744.21246,-0.24505615234375,0.0146484375,0.95989990234375,1.024322509765625,-0.64300537109375,-0.276641845703125,4.225023443223443E8,3.6804227106227106E8,3450695.9706959706,70.99701,1,1.0,1.0,1.0,1.0,100.00
2025-09-24 18:19:39.088,1.1153696,0.93689686,0.2893743,1.100329,0.6875288,0.26770833,0.15458454,1.0012535,1.0960621,0.40043864,0.29557616,1.4134043,0.43451428,0.123877116,0.21685271,0.43973657,0.23801336,0.28800443,-0.0110849645,0.3196308,783.2967,814.3223,794.57874,774.83514,886.4469,779.2674,-0.24505615234375,0.0146484375,0.95989990234375,1.024322509765625,-0.64300537109375,-0.276641845703125,4.225023443223443E8,3.6804227106227106E8,3450695.9706959706,70.99701,1,1.0,1.0,1.0,1.0,100.00
2025-09-24 18:19:39.155,1.1153696,0.93689686,0.2893743,1.100329,0.6875288,0.26770833,0.15458454,1.0012535,1.0960621,0.40043864,0.29557616,1.4134043,0.43451428,0.123877116,0.21685271,0.43973657,0.23801336,0.28800443,-0.0110849645,0.3196308,778.46155,807.8755,793.36993,778.86444,922.71063,873.95605,-0.24505615234375,0.0146484375,0.95989990234375,1.024322509765625,-0.64300537109375,-0.276641845703125,4.225023443223443E8,3.6804227106227106E8,3450695.9706959706,70.99701,1,1.0,1.0,1.0,1.0,100.00
2025-09-24 18:19:39.156,1.1153696,0.93689686,0.2893743,1.100329,0.6875288,0.26770833,0.15458454,1.0012535,1.0960621,0.40043864,0.29557616,1.4134043,0.43451428,0.123877116,0.21685271,0.43973657,0.23801336,0.28800443,-0.0110849645,0.3196308,787.326,767.1795,793.7729,782.0879,928.7546,819.5604,-0.24505615234375,0.0146484375,0.95989990234375,1.024322509765625,-0.64300537109375,-0.276641845703125,4.225023443223443E8,3.6804227106227106E8,3450695.9706959706,70.99701,1,1.0,1.0,1.0,1.0,100.00
2025-09-24 18:19:39.156,1.1153696,0.93689686,0.2893743,1.100329,0.6875288,0.26770833,0.15458454,1.0012535,1.0960621,0.40043864,0.29557616,1.4134043,0.43451428,0.123877116,0.21685271,0.43973657,0.23801336,0.28800443,-0.0110849645,0.3196308,786.9231,888.46155,790.9524,779.2674,830.84247,890.4762,-0.24505615234375,0.0146484375,0.95989990234375,1.024322509765625,-0.64300537109375,-0.276641845703125,4.225023443223443E8,3.6804227106227106E8,3450695.9706959706,70.99701,1,1.0,1.0,1.0,1.0,100.00
2025-09-24 18:19:39.156,1.1153696,0.93689686,0.2893743,1.100329,0.6875288,0.26770833,0.15458454,1.0012535,1.0960621,0.40043864,0.29557616,1.4134043,0.43451428,0.123877116,0.21685271,0.43973657,0.23801336,0.28800443,-0.0110849645,0.3196308,782.49084,801.4286,794.9817,778.86444,816.7399,954.5421,-0.24505615234375,0.0146484375,0.95989990234375,1.024322509765625,-0.64300537109375,-0.276641845703125,4.225023443223443E8,3.6804227106227106E8,3450695.9706959706,70.99701,1,1.0,1.0,1.0,1.0,100.00
2025-09-24 18:19:39.156,1.1153696,0.93689686,0.2893743,1.100329,0.6875288,0.26770833,0.15458454,1.0012535,1.0960621,0.40043864,0.29557616,1.4134043,0.43451428,0.123877116,0.21685271,0.43973657,0.23801336,0.28800443,-0.0110849645,0.3196308,778.86444,790.14655,796.5934,777.6557,870.32965,936.4103,-0.24505615234375,0.0146484375,0.95989990234375,1.024322509765625,-0.64300537109375,-0.276641845703125,4.225023443223443E8,3.6804227106227106E8,3450695.9706959706,70.99701,1,1.0,1.0,1.0,1.0,100.00
2025-09-24 18:19:39.157,1.1153696,0.93689686,0.2893743,1.100329,0.6875288,0.26770833,0.15458454,1.0012535,1.0960621,0.40043864,0.29557616,1.4134043,0.43451428,0.123877116,0.21685271,0.43973657,0.23801336,0.28800443,-0.0110849645,0.3196308,775.64105,892.49084,796.5934,772.8205,825.2015,1116.9231,-0.24505615234375,0.0146484375,0.95989990234375,1.024322509765625,-0.64300537109375,-0.276641845703125,4.225023443223443E8,3.6804227106227106E8,3450695.9706959706,70.99701,1,1.0,1.0,1.0,1.0,100.00
2025-09-24 18:19:39.157,1.1153696,0.93689686,0.2893743,1.100329,0.6875288,0.26770833,0.15458454,1.0012535,1.0960621,0.40043864,0.29557616,1.4134043,0.43451428,0.123877116,0.21685271,0.43973657,0.23801336,0.28800443,-0.0110849645,0.3196308,776.8498,799.81683,799.011,769.59705,817.1429,1097.5824,-0.24505615234375,0.0146484375,0.95989990234375,1.024322509765625,-0.64300537109375,-0.276641845703125,4.225023443223443E8,3.6804227106227106E8,3450695.9706959706,70.99701,1,1.0,1.0,1.0,1.0,100.00
2025-09-24 18:19:39.157,1.1153696,0.93689686,0.2893743,1.100329,0.6875288,0.26770833,0.15458454,1.0012535,1.0960621,0.40043864,0.29557616,1.4134043,0.43451428,0.123877116,0.21685271,0.43973657,0.23801336,0.28800443,-0.0110849645,0.3196308,774.0293,695.05493,794.57874,761.9414,825.6044,860.2564,-0.24505615234375,0.0146484375,0.95989990234375,1.024322509765625,-0.64300537109375,-0.276641845703125,4.225023443223443E8,3.6804227106227106E8,3450695.9706959706,70.99701,1,1.0,1.0,1.0,1.0,100.00
2025-09-24 18:19:39.157,1.1153696,0.93689686,0.2893743,1.100329,0.6875288,0.26770833,0.15458454,1.0012535,1.0960621,0.40043864,0.29557616,1.4134043,0.43451428,0.123877116,0.21685271,0.43973657,0.23801336,0.28800443,-0.0110849645,0.3196308,769.59705,753.47986,792.5641,756.7033,838.49817,742.1978,-0.24505615234375,0.0146484375,0.95989990234375,1.024322509765625,-0.64300537109375,-0.276641845703125,4.225023443223443E8,3.6804227106227106E8,3450695.9706959706,70.99701,1,1.0,1.0,1.0,1.0,100.00
2025-09-24 18:19:39.157,1.1153696,0.93689686,0.2893743,1.100329,0.6875288,0.26770833,0.15458454,1.0012535,1.0960621,0.40043864,0.29557616,1.4134043,0.43451428,0.123877116,0.21685271,0.43973657,0.23801336,0.28800443,-0.0110849645,0.3196308,768.7912,810.696,794.9817,758.315,869.92676,781.28204,-0.24505615234375,0.0146484375,0.95989990234375,1.024322509765625,-0.64300537109375,-0.276641845703125,4.225023443223443E8,3.6804227106227106E8,3450695.9706959706,70.99701,1,1.0,1.0,1.0,1.0,100.00
2025-09-24 18:19:39.158,1.1153696,0.93689686,0.2893743,1.100329,0.6875288,0.26770833,0.15458454,1.0012535,1.0960621,0.40043864,0.29557616,1.4134043,0.43451428,0.123877116,0.21685271,0.43973657,0.23801336,0.28800443,-0.0110849645,0.3196308,776.04395,780.4762,797.8022,766.3736,863.47986,780.07324,-0.24505615234375,0.0146484375,0.95989990234375,1.024322509765625,-0.64300537109375,-0.276641845703125,4.225023443223443E8,3.6804227106227106E8,3450695.9706959706,70.99701,1,1.0,1.0,1.0,1.0,100.00
2025-09-24 18:19:39.158,1.1153696,0.93689686,0.2893743,1.100329,0.6875288,0.26770833,0.15458454,1.0012535,1.0960621,0.40043864,0.29557616,1.4134043,0.43451428,0.123877116,0.21685271,0.43973657,0.23801336,0.28800443,-0.0110849645,0.3196308,777.6557,815.5311,799.011,773.6264,906.1905,807.8755,-0.24505615234375,0.0146484375,0.95989990234375,1.024322509765625,-0.64300537109375,-0.276641845703125,4.225023443223443E8,3.6804227106227106E8,3450695.9706959706,70.99701,1,1.0,1.0,1.0,1.0,100.00
2025-09-24 18:19:39.181,1.1153696,0.93689686,0.2893743,1.100329,0.6875288,0.26770833,0.15458454,1.0012535,1.0960621,0.40043864,0.29557616,1.4134043,0.43451428,0.123877116,0.21685271,0.43973657,0.23801336,0.28800443,-0.0110849645,0.3196308,780.07324,818.7546,798.60803,771.2088,940.84247,825.6044,-0.23797607421875,0.014892578125,0.95166015625,0.6878662109375,-1.435546875,0.7177734375,4.225023443223443E8,3.6787948717948717E8,3435384.6153846155,71.248474,1,1.0,1.0,1.0,1.0,100.00
2025-09-24 18:19:39.181,1.0638974,0.93689686,0.297087,1.0957525,0.68316233,0.26770833,0.14368957,1.0062246,1.100694,0.40043864,0.26710182,1.4134043,0.4397098,0.123877116,0.19375204,0.43295562,0.20941877,0.28800443,-0.030012721,0.30396733,776.4469,790.54944,794.17584,756.30035,858.24176,743.00366,-0.23797607421875,0.014892578125,0.95166015625,0.6878662109375,-1.435546875,0.7177734375,4.225023443223443E8,3.6787948717948717E8,3435384.6153846155,71.248474,1,1.0,1.0,1.0,1.0,100.00
2025-09-24 18:19:39.182,1.0638974,0.93689686,0.297087,1.0957525,0.68316233,0.26770833,0.14368957,1.0062246,1.100694,0.40043864,0.26710182,1.4134043,0.4397098,0.123877116,0.19375204,0.43295562,0.20941877,0.28800443,-0.030012721,0.30396733,768.3883,821.1722,792.5641,759.12085,810.293,682.1612,-0.23797607421875,0.014892578125,0.95166015625,0.6878662109375,-1.435546875,0.7177734375,4.225023443223443E8,3.6787948717948717E8,3435384.6153846155,71.248474,1,1.0,1.0,1.0,1.0,100.00
2025-09-24 18:19:39.183,1.0638974,0.93689686,0.297087,1.0957525,0.68316233,0.26770833,0.14368957,1.0062246,1.100694,0.40043864,0.26710182,1.4134043,0.4397098,0.123877116,0.19375204,0.43295562,0.20941877,0.28800443,-0.030012721,0.30396733,781.685,833.663,796.99634,777.25275,867.50916,747.8388,-0.23797607421875,0.014892578125,0.95166015625,0.6878662109375,-1.435546875,0.7177734375,4.225023443223443E8,3.6787948717948717E8,3435384.6153846155,71.248474,1,1.0,1.0,1.0,1.0,100.00
2025-09-24 18:19:39.183,1.0638974,0.93689686,0.297087,1.0957525,0.68316233,0.26770833,0.14368957,1.0062246,1.100694,0.40043864,0.26710182,1.4134043,0.4397098,0.123877116,0.19375204,0.43295562,0.20941877,0.28800443,-0.030012721,0.30396733,786.9231,843.73627,788.5348,778.86444,892.0879,816.337,-0.23797607421875,0.014892578125,0.95166015625,0.6878662109375,-1.435546875,0.7177734375,4.225023443223443E8,3.6787948717948717E8,3435384.6153846155,71.248474,1,1.0,1.0,1.0,1.0,100.00
2025-09-24 18:19:39.183,1.0638974,0.93689686,0.297087,1.0957525,0.68316233,0.26770833,0.14368957,1.0062246,1.100694,0.40043864,0.26710182,1.4134043,0.4397098,0.123877116,0.19375204,0.43295562,0.20941877,0.28800443,-0.030012721,0.30396733,786.1172,950.5128,778.0586,775.64105,855.0183,1096.3737,-0.23797607421875,0.014892578125,0.95166015625,0.6878662109375,-1.435546875,0.7177734375,4.225023443223443E8,3.6787948717948717E8,3435384.6153846155,71.248474,1,1.0,1.0,1.0,1.0,100.00
2025-09-24 18:19:39.183,1.0638974,0.93689686,0.297087,1.0957525,0.68316233,0.26770833,0.14368957,1.0062246,1.100694,0.40043864,0.26710182,1.4134043,0.4397098,0.123877116,0.19375204,0.43295562,0.20941877,0.28800443,-0.030012721,0.30396733,788.93774,790.9524,782.49084,773.6264,779.2674,1078.2417,-0.23797607421875,0.014892578125,0.95166015625,0.6878662109375,-1.435546875,0.7177734375,4.225023443223443E8,3.6787948717948717E8,3435384.6153846155,71.248474,1,1.0,1.0,1.0,1.0,100.00
2025-09-24 18:19:39.184,1.0638974,0.93689686,0.297087,1.0957525,0.68316233,0.26770833,0.14368957,1.0062246,1.100694,0.40043864,0.26710182,1.4134043,0.4397098,0.123877116,0.19375204,0.43295562,0.20941877,0.28800443,-0.030012721,0.30396733,800.2198,714.7985,792.1612,786.1172,791.3553,813.5165,-0.23797607421875,0.014892578125,0.95166015625,0.6878662109375,-1.435546875,0.7177734375,4.225023443223443E8,3.6787948717948717E8,3435384.6153846155,71.248474,1,1.0,1.0,1.0,1.0,100.00
2025-09-24 18:19:39.184,1.0638974,0.93689686,0.297087,1.0957525,0.68316233,0.26770833,0.14368957,1.0062246,1.100694,0.40043864,0.26710182,1.4134043,0.4397098,0.123877116,0.19375204,0.43295562,0.20941877,0.28800443,-0.030012721,0.30396733,810.293,872.3443,800.2198,795.38464,828.4249,914.2491,-0.23797607421875,0.014892578125,0.95166015625,0.6878662109375,-1.435546875,0.7177734375,4.225023443223443E8,3.6787948717948717E8,3435384.6153846155,71.248474,1,1.0,1.0,1.0,1.0,100.00
2025-09-24 18:19:39.184,1.0638974,0.93689686,0.297087,1.0957525,0.68316233,0.26770833,0.14368957,1.0062246,1.100694,0.40043864,0.26710182,1.4134043,0.4397098,0.123877116,0.19375204,0.43295562,0.20941877,0.28800443,-0.030012721,0.30396733,802.6374,773.6264,802.23444,785.31134,849.7802,771.2088,-0.23797607421875,0.014892578125,0.95166015625,0.6878662109375,-1.435546875,0.7177734375,4.225023443223443E8,3.6787948717948717E8,3435384.6153846155,71.248474,1,1.0,1.0,1.0,1.0,100.00
2025-09-24 18:19:39.185,1.0638974,0.93689686,0.297087,1.0957525,0.68316233,0.26770833,0.14368957,1.0062246,1.100694,0.40043864,0.26710182,1.4134043,0.4397098,0.123877116,0.19375204,0.43295562,0.20941877,0.28800443,-0.030012721,0.30396733,792.1612,762.74725,795.38464,774.83514,801.02563,515.34796,-0.23797607421875,0.014892578125,0.95166015625,0.6878662109375,-1.435546875,0.7177734375,4.225023443223443E8,3.6787948717948717E8,3435384.6153846155,71.248474,1,1.0,1.0,1.0,1.0,100.00
2025-09-24 18:19:39.185,1.0638974,0.93689686,0.297087,1.0957525,0.68316233,0.26770833,0.14368957,1.0062246,1.100694,0.40043864,0.26710182,1.4134043,0.4397098,0.123877116,0.19375204,0.43295562,0.20941877,0.28800443,-0.030012721,0.30396733,791.3553,855.42126,792.96704,773.6264,732.1245,626.55676,-0.23797607421875,0.014892578125,0.95166015625,0.6878662109375,-1.435546875,0.7177734375,4.225023443223443E8,3.6787948717948717E8,3435384.6153846155,71.248474,1,1.0,1.0,1.0,1.0,100.00
2025-09-24 18:19:39.207,1.0638974,0.93689686,0.297087,1.0957525,0.68316233,0.26770833,0.14368957,1.0062246,1.100694,0.40043864,0.26710182,1.4134043,0.4397098,0.123877116,0.19375204,0.43295562,0.20941877,0.28800443,-0.030012721,0.30396733,799.011,806.6667,796.99634,786.52014,745.0183,690.6227,-0.23724365234375,0.02410888671875,0.96417236328125,0.299072265625,-1.801910400390625,0.919647216796875,4.225023443223443E8,3.6787948717948717E8,3435384.6153846155,71.248474,1,1.0,1.0,1.0,1.0,100.00
2025-09-24 18:19:39.207,1.0638974,0.93689686,0.297087,1.0957525,0.68316233,0.26770833,0.14368957,1.0062246,1.100694,0.40043864,0.26710182,1.4134043,0.4397098,0.123877116,0.19375204,0.43295562,0.20941877,0.28800443,-0.030012721,0.30396733,800.2198,855.0183,800.2198,789.7436,807.8755,711.1722,-0.23724365234375,0.02410888671875,0.96417236328125,0.299072265625,-1.801910400390625,0.919647216796875,4.225023443223443E8,3.6787948717948717E8,3435384.6153846155,71.248474,1,1.0,1.0,1.0,1.0,100.00
2025-09-24 18:19:39.207,1.0638974,0.93689686,0.297087,1.0957525,0.68316233,0.26770833,0.14368957,1.0062246,1.100694,0.40043864,0.26710182,1.4134043,0.4397098,0.123877116,0.19375204,0.43295562,0.20941877,0.28800443,-0.030012721,0.30396733,789.7436,960.989,794.57874,770.0,790.14655,920.293,-0.23724365234375,0.02410888671875,0.96417236328125,0.299072265625,-1.801910400390625,0.919647216796875,4.225023443223443E8,3.6787948717948717E8,3435384.6153846155,71.248474,1,1.0,1.0,1.0,1.0,100.00
2025-09-24 18:19:39.208,1.0638974,0.93689686,0.297087,1.0957525,0.68316233,0.26770833,0.14368957,1.0062246,1.100694,0.40043864,0.26710182,1.4134043,0.4397098,0.123877116,0.19375204,0.43295562,0.20941877,0.28800443,-0.030012721,0.30396733,788.1319,787.326,788.1319,771.6117,778.46155,932.381,-0.23724365234375,0.02410888671875,0.96417236328125,0.299072265625,-1.801910400390625,0.919647216796875,4.225023443223443E8,3.6787948717948717E8,3435384.6153846155,71.248474,1,1.0,1.0,1.0,1.0,100.00
2025-09-24 18:19:39.208,1.0638974,0.93689686,0.297087,1.0957525,0.68316233,0.26770833,0.14368957,1.0062246,1.100694,0.40043864,0.26710182,1.4134043,0.4397098,0.123877116,0.19375204,0.43295562,0.20941877,0.28800443,-0.030012721,0.30396733,795.38464,779.2674,788.5348,786.52014,888.0586,859.45056,-0.23724365234375,0.02410888671875,0.96417236328125,0.299072265625,-1.801910400390625,0.919647216796875,4.225023443223443E8,3.6787948717948717E8,3435384.6153846155,71.248474,1,1.0,1.0,1.0,1.0,100.00
2025-09-24 18:19:39.208,1.0638974,0.93689686,0.297087,1.0957525,0.68316233,0.26770833,0.14368957,1.0062246,1.100694,0.40043864,0.26710182,1.4134043,0.4397098,0.123877116,0.19375204,0.43295562,0.20941877,0.28800443,-0.030012721,0.30396733,792.1612,916.6667,791.75824,786.52014,960.989,1102.8206,-0.23724365234375,0.02410888671875,0.96417236328125,0.299072265625,-1.801910400390625,0.919647216796875,4.225023443223443E8,3.6787948717948717E8,3435384.6153846155,71.248474,1,1.0,1.0,1.0,1.0,100.00
2025-09-24 18:19:39.208,1.0638974,0.93689686,0.297087,1.0957525,0.68316233,0.26770833,0.14368957,1.0062246,1.100694,0.40043864,0.26710182,1.4134043,0.4397098,0.123877116,0.19375204,0.43295562,0.20941877,0.28800443,-0.030012721,0.30396733,787.326,813.1135,796.1905,776.8498,915.05493,1113.2968,-0.23724365234375,0.02410888671875,0.96417236328125,0.299072265625,-1.801910400390625,0.919647216796875,4.225023443223443E8,3.6787948717948717E8,3435384.6153846155,71.248474,1,1.0,1.0,1.0,1.0,100.00
2025-09-24 18:19:39.208,1.0638974,0.93689686,0.297087,1.0957525,0.68316233,0.26770833,0.14368957,1.0062246,1.100694,0.40043864,0.26710182,1.4134043,0.4397098,0.123877116,0.19375204,0.43295562,0.20941877,0.28800443,-0.030012721,0.30396733,792.1612,692.6374,794.57874,776.4469,846.55676,927.1429,-0.23724365234375,0.02410888671875,0.96417236328125,0.299072265625,-1.801910400390625,0.919647216796875,4.225023443223443E8,3.6787948717948717E8,3435384.6153846155,71.248474,1,1.0,1.0,1.0,1.0,100.00
2025-09-24 18:19:39.209,1.0638974,0.93689686,0.297087,1.0957525,0.68316233,0.26770833,0.14368957,1.0062246,1.100694,0.40043864,0.26710182,1.4134043,0.4397098,0.123877116,0.19375204,0.43295562,0.20941877,0.28800443,-0.030012721,0.30396733,789.34064,718.8278,792.5641,776.8498,865.4945,764.35895,-0.23724365234375,0.02410888671875,0.96417236328125,0.299072265625,-1.801910400390625,0.919647216796875,4.225023443223443E8,3.6787948717948717E8,3435384.6153846155,71.248474,1,1.0,1.0,1.0,1.0,100.00
2025-09-24 18:19:39.209,1.0638974,0.93689686,0.297087,1.0957525,0.68316233,0.26770833,0.14368957,1.0062246,1.100694,0.40043864,0.26710182,1.4134043,0.4397098,0.123877116,0.19375204,0.43295562,0.20941877,0.28800443,-0.030012721,0.30396733,780.87915,807.8755,793.7729,772.8205,920.293,731.7216,-0.23724365234375,0.02410888671875,0.96417236328125,0.299072265625,-1.801910400390625,0.919647216796875,4.225023443223443E8,3.6787948717948717E8,3435384.6153846155,71.248474,1,1.0,1.0,1.0,1.0,100.00
2025-09-24 18:19:39.209,1.0638974,0.93689686,0.297087,1.0957525,0.68316233,0.26770833,0.14368957,1.0062246,1.100694,0.40043864,0.26710182,1.4134043,0.4397098,0.123877116,0.19375204,0.43295562,0.20941877,0.28800443,-0.030012721,0.30396733,777.6557,790.54944,794.57874,776.4469,901.75824,657.98535,-0.23724365234375,0.02410888671875,0.96417236328125,0.299072265625,-1.801910400390625,0.919647216796875,4.225023443223443E8,3.6787948717948717E8,3435384.6153846155,71.248474,1,1.0,1.0,1.0,1.0,100.00
2025-09-24 18:19:39.209,1.0638974,0.93689686,0.297087,1.0957525,0.68316233,0.26770833,0.14368957,1.0062246,1.100694,0.40043864,0.26710182,1.4134043,0.4397098,0.123877116,0.19375204,0.43295562,0.20941877,0.28800443,-0.030012721,0.30396733,780.07324,850.58606,794.17584,772.4176,826.8132,766.77655,-0.23724365234375,0.02410888671875,0.96417236328125,0.299072265625,-1.801910400390625,0.919647216796875,4.225023443223443E8,3.6787948717948717E8,3435384.6153846155,71.248474,1,1.0,1.0,1.0,1.0,100.00
2025-09-24 18:19:39.254,1.0638974,0.93689686,0.297087,1.0957525,0.68316233,0.26770833,0.14368957,1.0062246,1.100694,0.40043864,0.26710182,1.4134043,0.4397098,0.123877116,0.19375204,0.43295562,0.20941877,0.28800443,-0.030012721,0.30396733,776.4469,861.06226,798.60803,762.74725,798.20514,1032.3077,-0.23651123046875,0.0220947265625,0.96221923828125,0.590667724609375,-0.73272705078125,-0.28411865234375,4.225023443223443E8,3.677553846153846E8,3467619.0476190476,71.48523,1,1.0,1.0,1.0,1.0,100.00
2025-09-24 18:19:39.254,1.0638974,0.93689686,0.297087,1.0957525,0.68316233,0.26770833,0.14368957,1.0062246,1.100694,0.40043864,0.26710182,1.4134043,0.4397098,0.123877116,0.19375204,0.43295562,0.20941877,0.28800443,-0.030012721,0.30396733,770.80585,689.41394,794.57874,762.3443,799.011,741.39197,-0.23651123046875,0.0220947265625,0.96221923828125,0.590667724609375,-0.73272705078125,-0.28411865234375,4.225023443223443E8,3.677553846153846E8,3467619.0476190476,71.48523,1,1.0,1.0,1.0,1.0,100.00
2025-09-24 18:19:39.255,1.0638974,0.93689686,0.297087,1.0957525,0.68316233,0.26770833,0.14368957,1.0062246,1.100694,0.40043864,0.26710182,1.4134043,0.4397098,0.123877116,0.19375204,0.43295562,0.20941877,0.28800443,-0.030012721,0.30396733,775.64105,828.8278,794.9817,766.77655,776.8498,554.43225,-0.23651123046875,0.0220947265625,0.96221923828125,0.590667724609375,-0.73272705078125,-0.28411865234375,4.225023443223443E8,3.677553846153846E8,3467619.0476190476,71.48523,1,1.0,1.0,1.0,1.0,100.00
2025-09-24 18:19:39.255,1.0041238,0.93689686,0.2970496,1.0960588,0.6737535,0.26770833,0.12597898,1.0089072,1.1166604,0.40043864,0.24787052,1.4077053,0.44986928,0.123877116,0.17870778,0.43273333,0.19148721,0.28800443,-0.04764083,0.29199067,764.7619,869.5238,796.1905,762.3443,821.5751,714.3956,-0.23651123046875,0.0220947265625,0.96221923828125,0.590667724609375,-0.73272705078125,-0.28411865234375,4.225023443223443E8,3.677553846153846E8,3467619.0476190476,71.48523,1,1.0,1.0,1.0,1.0,100.00
2025-09-24 18:19:39.256,1.0041238,0.93689686,0.2970496,1.0960588,0.6737535,0.26770833,0.12597898,1.0089072,1.1166604,0.40043864,0.24787052,1.4077053,0.44986928,0.123877116,0.17870778,0.43273333,0.19148721,0.28800443,-0.04764083,0.29199067,760.7326,846.9597,794.17584,761.9414,893.2967,811.9048,-0.23651123046875,0.0220947265625,0.96221923828125,0.590667724609375,-0.73272705078125,-0.28411865234375,4.225023443223443E8,3.677553846153846E8,3467619.0476190476,71.48523,1,1.0,1.0,1.0,1.0,100.00
2025-09-24 18:19:39.257,1.0041238,0.93689686,0.2970496,1.0960588,0.6737535,0.26770833,0.12597898,1.0089072,1.1166604,0.40043864,0.24787052,1.4077053,0.44986928,0.123877116,0.17870778,0.43273333,0.19148721,0.28800443,-0.04764083,0.29199067,777.25275,873.95605,796.1905,779.67035,858.24176,965.0183,-0.23651123046875,0.0220947265625,0.96221923828125,0.590667724609375,-0.73272705078125,-0.28411865234375,4.225023443223443E8,3.677553846153846E8,3467619.0476190476,71.48523,1,1.0,1.0,1.0,1.0,100.00
2025-09-24 18:19:39.257,1.0041238,0.93689686,0.2970496,1.0960588,0.6737535,0.26770833,0.12597898,1.0089072,1.1166604,0.40043864,0.24787052,1.4077053,0.44986928,0.123877116,0.17870778,0.43273333,0.19148721,0.28800443,-0.04764083,0.29199067,784.10254,800.6227,799.41394,790.9524,790.14655,911.02563,-0.23651123046875,0.0220947265625,0.96221923828125,0.590667724609375,-0.73272705078125,-0.28411865234375,4.225023443223443E8,3.677553846153846E8,3467619.0476190476,71.48523,1,1.0,1.0,1.0,1.0,100.00
2025-09-24 18:19:39.257,1.0041238,0.93689686,0.2970496,1.0960588,0.6737535,0.26770833,0.12597898,1.0089072,1.1166604,0.40043864,0.24787052,1.4077053,0.44986928,0.123877116,0.17870778,0.43273333,0.19148721,0.28800443,-0.04764083,0.29199067,782.49084,749.0476,806.6667,787.326,773.22345,813.1135,-0.23651123046875,0.0220947265625,0.96221923828125,0.590667724609375,-0.73272705078125,-0.28411865234375,4.225023443223443E8,3.677553846153846E8,3467619.0476190476,71.48523,1,1.0,1.0,1.0,1.0,100.00
2025-09-24 18:19:39.257,1.0041238,0.93689686,0.2970496,1.0960588,0.6737535,0.26770833,0.12597898,1.0089072,1.1166604,0.40043864,0.24787052,1.4077053,0.44986928,0.123877116,0.17870778,0.43273333,0.19148721,0.28800443,-0.04764083,0.29199067,782.0879,784.10254,798.60803,785.7143,834.87177,759.92676,-0.23651123046875,0.0220947265625,0.96221923828125,0.590667724609375,-0.73272705078125,-0.28411865234375,4.225023443223443E8,3.677553846153846E8,3467619.0476190476,71.48523,1,1.0,1.0,1.0,1.0,100.00
2025-09-24 18:19:39.257,1.0041238,0.93689686,0.2970496,1.0960588,0.6737535,0.26770833,0.12597898,1.0089072,1.1166604,0.40043864,0.24787052,1.4077053,0.44986928,0.123877116,0.17870778,0.43273333,0.19148721,0.28800443,-0.04764083,0.29199067,785.31134,783.69965,792.96704,790.54944,823.9927,652.3443,-0.23651123046875,0.0220947265625,0.96221923828125,0.590667724609375,-0.73272705078125,-0.28411865234375,4.225023443223443E8,3.677553846153846E8,3467619.0476190476,71.48523,1,1.0,1.0,1.0,1.0,100.00
2025-09-24 18:19:39.258,1.0041238,0.93689686,0.2970496,1.0960588,0.6737535,0.26770833,0.12597898,1.0089072,1.1166604,0.40043864,0.24787052,1.4077053,0.44986928,0.123877116,0.17870778,0.43273333,0.19148721,0.28800443,-0.04764083,0.29199067,779.67035,830.4396,794.57874,786.52014,834.87177,662.8205,-0.23651123046875,0.0220947265625,0.96221923828125,0.590667724609375,-0.73272705078125,-0.28411865234375,4.225023443223443E8,3.677553846153846E8,3467619.0476190476,71.48523,1,1.0,1.0,1.0,1.0,100.00
2025-09-24 18:19:39.258,1.0041238,0.93689686,0.2970496,1.0960588,0.6737535,0.26770833,0.12597898,1.0089072,1.1166604,0.40043864,0.24787052,1.4077053,0.44986928,0.123877116,0.17870778,0.43273333,0.19148721,0.28800443,-0.04764083,0.29199067,777.6557,839.304,790.54944,779.67035,883.22345,770.0,-0.23651123046875,0.0220947265625,0.96221923828125,0.590667724609375,-0.73272705078125,-0.28411865234375,4.225023443223443E8,3.677553846153846E8,3467619.0476190476,71.48523,1,1.0,1.0,1.0,1.0,100.00
2025-09-24 18:19:39.302,1.0041238,0.93689686,0.2970496,1.0960588,0.6737535,0.26770833,0.12597898,1.0089072,1.1166604,0.40043864,0.24787052,1.4077053,0.44986928,0.123877116,0.17870778,0.43273333,0.19148721,0.28800443,-0.04764083,0.29199067,782.0879,774.0293,790.9524,784.5055,850.989,752.27106,-0.23651123046875,0.0220947265625,0.96221923828125,0.590667724609375,-0.73272705078125,-0.28411865234375,4.225023443223443E8,3.677553846153846E8,3467619.0476190476,71.48523,1,1.0,1.0,1.0,1.0,100.00
2025-09-24 18:19:39.303,1.0041238,0.93689686,0.2970496,1.0960588,0.6737535,0.26770833,0.12597898,1.0089072,1.1166604,0.40043864,0.24787052,1.4077053,0.44986928,0.123877116,0.17870778,0.43273333,0.19148721,0.28800443,-0.04764083,0.29199067,794.9817,799.011,791.3553,795.38464,927.1429,772.01465,-0.23651123046875,0.0220947265625,0.96221923828125,0.590667724609375,-0.73272705078125,-0.28411865234375,4.225023443223443E8,3.677553846153846E8,3467619.0476190476,71.48523,1,1.0,1.0,1.0,1.0,100.00
2025-09-24 18:19:39.305,1.0041238,0.93689686,0.2970496,1.0960588,0.6737535,0.26770833,0.12597898,1.0089072,1.1166604,0.40043864,0.24787052,1.4077053,0.44986928,0.123877116,0.17870778,0.43273333,0.19148721,0.28800443,-0.04764083,0.29199067,797.3993,913.0403,794.57874,797.8022,904.17584,894.5055,-0.23651123046875,0.0220947265625,0.96221923828125,0.590667724609375,-0.73272705078125,-0.28411865234375,4.225023443223443E8,3.677553846153846E8,3467619.0476190476,71.48523,1,1.0,1.0,1.0,1.0,100.00
2025-09-24 18:19:39.306,1.0041238,0.93689686,0.2970496,1.0960588,0.6737535,0.26770833,0.12597898,1.0089072,1.1166604,0.40043864,0.24787052,1.4077053,0.44986928,0.123877116,0.17870778,0.43273333,0.19148721,0.28800443,-0.04764083,0.29199067,782.8938,893.2967,793.7729,788.93774,787.72894,1059.7069,-0.23651123046875,0.0220947265625,0.96221923828125,0.590667724609375,-0.73272705078125,-0.28411865234375,4.225023443223443E8,3.677553846153846E8,3467619.0476190476,71.48523,1,1.0,1.0,1.0,1.0,100.00
2025-09-24 18:19:39.306,1.0041238,0.93689686,0.2970496,1.0960588,0.6737535,0.26770833,0.12597898,1.0089072,1.1166604,0.40043864,0.24787052,1.4077053,0.44986928,0.123877116,0.17870778,0.43273333,0.19148721,0.28800443,-0.04764083,0.29199067,772.4176,743.8095,790.9524,776.4469,801.8315,974.68866,-0.23651123046875,0.0220947265625,0.96221923828125,0.590667724609375,-0.73272705078125,-0.28411865234375,4.225023443223443E8,3.677553846153846E8,3467619.0476190476,71.48523,1,1.0,1.0,1.0,1.0,100.00
2025-09-24 18:19:39.307,1.0041238,0.93689686,0.2970496,1.0960588,0.6737535,0.26770833,0.12597898,1.0089072,1.1166604,0.40043864,0.24787052,1.4077053,0.44986928,0.123877116,0.17870778,0.43273333,0.19148721,0.28800443,-0.04764083,0.29199067,778.86444,832.4542,796.1905,778.0586,831.6484,1010.54944,-0.23651123046875,0.0220947265625,0.96221923828125,0.590667724609375,-0.73272705078125,-0.28411865234375,4.225023443223443E8,3.677553846153846E8,3467619.0476190476,71.48523,1,1.0,1.0,1.0,1.0,100.00
2025-09-24 18:19:39.309,1.0041238,0.93689686,0.2970496,1.0960588,0.6737535,0.26770833,0.12597898,1.0089072,1.1166604,0.40043864,0.24787052,1.4077053,0.44986928,0.123877116,0.17870778,0.43273333,0.19148721,0.28800443,-0.04764083,0.29199067,790.9524,838.49817,801.8315,784.10254,850.989,1002.0879,-0.23651123046875,0.0220947265625,0.96221923828125,0.590667724609375,-0.73272705078125,-0.28411865234375,4.225023443223443E8,3.677553846153846E8,3467619.0476190476,71.48523,1,1.0,1.0,1.0,1.0,100.00
2025-09-24 18:19:39.310,1.0041238,0.93689686,0.2970496,1.0960588,0.6737535,0.26770833,0.12597898,1.0089072,1.1166604,0.40043864,0.24787052,1.4077053,0.44986928,0.123877116,0.17870778,0.43273333,0.19148721,0.28800443,-0.04764083,0.29199067,788.1319,757.9121,810.293,784.90845,882.8205,868.315,-0.23651123046875,0.0220947265625,0.96221923828125,0.590667724609375,-0.73272705078125,-0.28411865234375,4.225023443223443E8,3.677553846153846E8,3467619.0476190476,71.48523,1,1.0,1.0,1.0,1.0,100.00
2025-09-24 18:19:39.310,1.0041238,0.93689686,0.2970496,1.0960588,0.6737535,0.26770833,0.12597898,1.0089072,1.1166604,0.40043864,0.24787052,1.4077053,0.44986928,0.123877116,0.17870778,0.43273333,0.19148721,0.28800443,-0.04764083,0.29199067,779.2674,746.63007,810.293,781.28204,937.2161,777.25275,-0.23651123046875,0.0220947265625,0.96221923828125,0.590667724609375,-0.73272705078125,-0.28411865234375,4.225023443223443E8,3.677553846153846E8,3467619.0476190476,71.48523,1,1.0,1.0,1.0,1.0,100.00
2025-09-24 18:19:39.311,1.0041238,0.93689686,0.2970496,1.0960588,0.6737535,0.26770833,0.12597898,1.0089072,1.1166604,0.40043864,0.24787052,1.4077053,0.44986928,0.123877116,0.17870778,0.43273333,0.19148721,0.28800443,-0.04764083,0.29199067,779.67035,796.1905,798.60803,780.87915,923.91943,732.52747,-0.23651123046875,0.0220947265625,0.96221923828125,0.590667724609375,-0.73272705078125,-0.28411865234375,4.225023443223443E8,3.677553846153846E8,3467619.0476190476,71.48523,1,1.0,1.0,1.0,1.0,100.00
2025-09-24 18:19:39.311,1.0041238,0.93689686,0.2970496,1.0960588,0.6737535,0.26770833,0.12597898,1.0089072,1.1166604,0.40043864,0.24787052,1.4077053,0.44986928,0.123877116,0.17870778,0.43273333,0.19148721,0.28800443,-0.04764083,0.29199067,779.2674,834.87177,794.17584,779.2674,879.59705,673.2967,-0.23651123046875,0.0220947265625,0.96221923828125,0.590667724609375,-0.73272705078125,-0.28411865234375,4.225023443223443E8,3.677553846153846E8,3467619.0476190476,71.48523,1,1.0,1.0,1.0,1.0,100.00
2025-09-24 18:19:39.312,1.0041238,0.93689686,0.2970496,1.0960588,0.6737535,0.26770833,0.12597898,1.0089072,1.1166604,0.40043864,0.24787052,1.4077053,0.44986928,0.123877116,0.17870778,0.43273333,0.19148721,0.28800443,-0.04764083,0.29199067,768.3883,857.8388,790.9524,763.95605,811.9048,665.64105,-0.23651123046875,0.0220947265625,0.96221923828125,0.590667724609375,-0.73272705078125,-0.28411865234375,4.225023443223443E8,3.677553846153846E8,3467619.0476190476,71.48523,1,1.0,1.0,1.0,1.0,100.00
2025-09-24 18:19:39.354,1.0041238,0.93689686,0.2970496,1.0960588,0.6737535,0.26770833,0.12597898,1.0089072,1.1166604,0.40043864,0.24787052,1.4077053,0.44986928,0.123877116,0.17870778,0.43273333,0.19148721,0.28800443,-0.04764083,0.29199067,774.0293,844.1392,788.5348,762.3443,799.41394,740.18317,-0.2408447265625,0.0185546875,0.9647216796875,-0.1495361328125,-0.381317138671875,-0.35888671875,4.225023443223443E8,3.6752893772893775E8,3442637.3626373624,71.70813,1,1.0,1.0,1.0,1.0,100.00
2025-09-24 18:19:39.354,1.0041238,0.93689686,0.2970496,1.0960588,0.6737535,0.26770833,0.12597898,1.0089072,1.1166604,0.40043864,0.24787052,1.4077053,0.44986928,0.123877116,0.17870778,0.43273333,0.19148721,0.28800443,-0.04764083,0.29199067,784.5055,806.26373,794.9817,766.77655,841.31866,756.7033,-0.2408447265625,0.0185546875,0.9647216796875,-0.1495361328125,-0.381317138671875,-0.35888671875,4.225023443223443E8,3.6752893772893775E8,3442637.3626373624,71.70813,1,1.0,1.0,1.0,1.0,100.00
2025-09-24 18:19:39.354,1.0041238,0.93689686,0.2970496,1.0960588,0.6737535,0.26770833,0.12597898,1.0089072,1.1166604,0.40043864,0.24787052,1.4077053,0.44986928,0.123877116,0.17870778,0.43273333,0.19148721,0.28800443,-0.04764083,0.29199067,770.80585,844.94507,796.5934,756.30035,861.8681,730.5128,-0.2408447265625,0.0185546875,0.9647216796875,-0.1495361328125,-0.381317138671875,-0.35888671875,4.225023443223443E8,3.6752893772893775E8,3442637.3626373624,71.70813,1,1.0,1.0,1.0,1.0,100.00
2025-09-24 18:19:39.358,1.0041238,0.93689686,0.2970496,1.0960588,0.6737535,0.26770833,0.12597898,1.0089072,1.1166604,0.40043864,0.24787052,1.4077053,0.44986928,0.123877116,0.17870778,0.43273333,0.19148721,0.28800443,-0.04764083,0.29199067,772.4176,853.4066,792.96704,760.32965,872.3443,805.05493,-0.2408447265625,0.0185546875,0.9647216796875,-0.1495361328125,-0.381317138671875,-0.35888671875,4.225023443223443E8,3.6752893772893775E8,3442637.3626373624,71.70813,1,1.0,1.0,1.0,1.0,100.00
