TimeStamp,Delta_TP9,Delta_AF7,Delta_AF8,Delta_TP10,Theta_TP9,Theta_AF7,Theta_AF8,Theta_TP10,Alpha_TP9,Alpha_AF7,Alpha_AF8,Alpha_TP10,Beta_TP9,Beta_AF7,Beta_AF8,Beta_TP10,Gamma_TP9,Gamma_AF7,Gamma_AF8,Gamma_TP10,RAW_TP9,RAW_AF7,RAW_AF8,RAW_TP10,AUX_RIGHT,AUX_LEFT,Accelerometer_X,Accelerometer_Y,Accelerometer_Z,Gyro_X,Gyro_Y,Gyro_Z,PPG_Ambient,PPG_IR,PPG_Red,Heart_Rate,HeadBandOn,HSI_TP9,HSI_AF7,HSI_AF8,HSI_TP10,Battery,Elements
2025-09-25 15:37:14.683,,,,,,,,,,,,,,,,,,,,,,,,,,,,,,,,,,,,,,,,,,,/muse/event/connected MuseS-9CF6
2025-09-25 15:37:14.751,0.09214986713497997,0,0.20830858358789,0.3244254188999863,0.8033656744087316,0,0.1175738463786839,0.4892264931195627,1.779711843582978,0,0.9204677931495316,1.728279148881359,1.980985943920184,0,0.8721071271685185,1.580602680739849,1.830825270650207,0,0.6172335953106303,1.428434786165093,813.919413919414,844.9450549450549,821.5750915750916,837.6923076923077,839.7069597069598,736.5567765567765,-0.379333,0.016052,0.914978,0.104675,0.328979,0.112152,364754358.974359,287695531.135531,2067838.827839,79.058975,1,1,1,1,1,96.000000
2025-09-25 15:37:14.752,0.09214986713497997,0,0.20830858358789,0.3244254188999863,0.8033656744087316,0,0.1175738463786839,0.4892264931195627,1.779711843582978,0,0.9204677931495316,1.728279148881359,1.980985943920184,0,0.8721071271685185,1.580602680739849,1.830825270650207,0,0.6172335953106303,1.428434786165093,908.2051282051282,958.974358974359,816.3369963369963,896.5201465201466,869.1208791208792,945.6776556776557,-0.379333,0.016052,0.914978,0.104675,0.328979,0.112152,364754358.974359,287695531.135531,2067838.827839,79.058975,1,1,1,1,1,96.000000
2025-09-25 15:37:14.752,0.09214986713497997,0,0.20830858358789,0.3244254188999863,0.8033656744087316,0,0.1175738463786839,0.4892264931195627,1.779711843582978,0,0.9204677931495316,1.728279148881359,1.980985943920184,0,0.8721071271685185,1.580602680739849,1.830825270650207,0,0.6172335953106303,1.428434786165093,843.3333333333334,721.6483516483516,815.1282051282052,875.9706959706959,911.0256410256411,943.6630036630037,-0.379333,0.016052,0.914978,0.104675,0.328979,0.112152,364754358.974359,287695531.135531,2067838.827839,79.058975,1,1,1,1,1,96.000000
2025-09-25 15:37:14.752,0.09214986713497997,0,0.20830858358789,0.3244254188999863,0.8033656744087316,0,0.1175738463786839,0.4892264931195627,1.779711843582978,0,0.9204677931495316,1.728279148881359,1.980985943920184,0,0.8721071271685185,1.580602680739849,1.830825270650207,0,0.6172335953106303,1.428434786165093,732.9304029304029,678.9377289377289,813.919413919414,796.1904761904763,904.1758241758242,783.2967032967033,-0.379333,0.016052,0.914978,0.104675,0.328979,0.112152,364754358.974359,287695531.135531,2067838.827839,79.058975,1,1,1,1,1,96.000000
2025-09-25 15:37:14.752,0.09214986713497997,0,0.20830858358789,0.3244254188999863,0.8033656744087316,0,0.1175738463786839,0.4892264931195627,1.779711843582978,0,0.9204677931495316,1.728279148881359,1.980985943920184,0,0.8721071271685185,1.580602680739849,1.830825270650207,0,0.6172335953106303,1.428434786165093,725.2747252747253,759.1208791208792,803.4432234432235,766.7765567765568,866.3003663003664,695.0549450549451,-0.379333,0.016052,0.914978,0.104675,0.328979,0.112152,364754358.974359,287695531.135531,2067838.827839,79.058975,1,1,1,1,1,96.000000
2025-09-25 15:37:14.752,0.09214986713497997,0,0.20830858358789,0.3244254188999863,0.8033656744087316,0,0.1175738463786839,0.4892264931195627,1.779711843582978,0,0.9204677931495316,1.728279148881359,1.980985943920184,0,0.8721071271685185,1.580602680739849,1.830825270650207,0,0.6172335953106303,1.428434786165093,815.1282051282052,969.8534798534798,796.996336996337,811.0989010989011,810.2930402930403,910.2197802197802,-0.379333,0.016052,0.914978,0.104675,0.328979,0.112152,364754358.974359,287695531.135531,2067838.827839,79.058975,1,1,1,1,1,96.000000
2025-09-25 15:37:14.752,0.09214986713497997,0,0.20830858358789,0.3244254188999863,0.8033656744087316,0,0.1175738463786839,0.4892264931195627,1.779711843582978,0,0.9204677931495316,1.728279148881359,1.980985943920184,0,0.8721071271685185,1.580602680739849,1.830825270650207,0,0.6172335953106303,1.428434786165093,891.2820512820513,916.6666666666667,800.2197802197802,853.4065934065934,909.8168498168499,1207.179487179487,-0.379333,0.016052,0.914978,0.104675,0.328979,0.112152,364754358.974359,287695531.135531,2067838.827839,79.058975,1,1,1,1,1,96.000000
2025-09-25 15:37:14.752,0.09214986713497997,0,0.20830858358789,0.3244254188999863,0.8033656744087316,0,0.1175738463786839,0.4892264931195627,1.779711843582978,0,0.9204677931495316,1.728279148881359,1.980985943920184,0,0.8721071271685185,1.580602680739849,1.830825270650207,0,0.6172335953106303,1.428434786165093,811.0989010989011,769.5970695970697,804.6520146520147,799.8168498168499,935.2014652014652,1294.212454212454,-0.379333,0.016052,0.914978,0.104675,0.328979,0.112152,364754358.974359,287695531.135531,2067838.827839,79.058975,1,1,1,1,1,96.000000
2025-09-25 15:37:14.753,0.09214986713497997,0,0.20830858358789,0.3244254188999863,0.8033656744087316,0,0.1175738463786839,0.4892264931195627,1.779711843582978,0,0.9204677931495316,1.728279148881359,1.980985943920184,0,0.8721071271685185,1.580602680739849,1.830825270650207,0,0.6172335953106303,1.428434786165093,738.1684981684982,599.9633699633699,804.6520146520147,780.8791208791209,941.2454212454213,1080.659340659341,-0.379333,0.016052,0.914978,0.104675,0.328979,0.112152,364754358.974359,287695531.135531,2067838.827839,79.058975,1,1,1,1,1,96.000000
2025-09-25 15:37:14.753,0.09214986713497997,0,0.2385392190985669,0.3200607981686008,0.8033656744087316,0,0.1131306522917713,0.4585543606088845,1.779711843582978,0,0.9204677931495316,1.727744328841067,1.980985943920184,0,0.8785766491615543,1.56485288992194,1.830825270650207,0,0.5979379037036683,1.396987255870377,731.7216117216118,617.6923076923077,803.4432234432235,804.2490842490843,885.6410256410256,690.6227106227107,-0.379333,0.016052,0.914978,0.104675,0.328979,0.112152,364754358.974359,287695531.135531,2067838.827839,79.058975,1,1,1,1,1,96.000000
2025-09-25 15:37:14.753,0.09214986713497997,0,0.2385392190985669,0.3200607981686008,0.8033656744087316,0,0.1131306522917713,0.4585543606088845,1.779711843582978,0,0.9204677931495316,1.727744328841067,1.980985943920184,0,0.8785766491615543,1.56485288992194,1.830825270650207,0,0.5979379037036683,1.396987255870377,795.7875457875458,837.6923076923077,804.2490842490843,810.2930402930403,770,644.6886446886447,-0.379333,0.016052,0.914978,0.104675,0.328979,0.112152,364754358.974359,287695531.135531,2067838.827839,79.058975,1,1,1,1,1,96.000000
2025-09-25 15:37:14.753,0.09214986713497997,0,0.2385392190985669,0.3200607981686008,0.8033656744087316,0,0.1131306522917713,0.4585543606088845,1.779711843582978,0,0.9204677931495316,1.727744328841067,1.980985943920184,0,0.8785766491615543,1.56485288992194,1.830825270650207,0,0.5979379037036683,1.396987255870377,782.893772893773,800.6227106227107,812.7106227106227,785.3113553113553,820.7692307692308,740.5860805860806,-0.379333,0.016052,0.914978,0.104675,0.328979,0.112152,364754358.974359,287695531.135531,2067838.827839,79.058975,1,1,1,1,1,96.000000
2025-09-25 15:37:14.753,0.09214986713497997,0,0.2385392190985669,0.3200607981686008,0.8033656744087316,0,0.1131306522917713,0.4585543606088845,1.779711843582978,0,0.9204677931495316,1.727744328841067,1.980985943920184,0,0.8785766491615543,1.56485288992194,1.830825270650207,0,0.5979379037036683,1.396987255870377,730.5128205128206,691.025641025641,813.1135531135532,763.5531135531136,802.6373626373627,633.0036630036631,-0.379333,0.016052,0.914978,0.104675,0.328979,0.112152,364754358.974359,287695531.135531,2067838.827839,79.058975,1,1,1,1,1,96.000000
2025-09-25 15:37:14.754,0.09214986713497997,0,0.2385392190985669,0.3200607981686008,0.8033656744087316,0,0.1131306522917713,0.4585543606088845,1.779711843582978,0,0.9204677931495316,1.727744328841067,1.980985943920184,0,0.8785766491615543,1.56485288992194,1.830825270650207,0,0.5979379037036683,1.396987255870377,752.2710622710623,783.2967032967033,806.6666666666667,782.0879120879121,698.2783882783883,503.2600732600733,-0.379333,0.016052,0.914978,0.104675,0.328979,0.112152,364754358.974359,287695531.135531,2067838.827839,79.058975,1,1,1,1,1,96.000000
2025-09-25 15:37:14.754,0.09214986713497997,0,0.2385392190985669,0.3200607981686008,0.8033656744087316,0,0.1131306522917713,0.4585543606088845,1.779711843582978,0,0.9204677931495316,1.727744328841067,1.980985943920184,0,0.8785766491615543,1.56485288992194,1.830825270650207,0,0.5979379037036683,1.396987255870377,855.0183150183151,914.2490842490843,811.0989010989011,846.1538461538462,755.4945054945055,676.1172161172161,-0.379333,0.016052,0.914978,0.104675,0.328979,0.112152,364754358.974359,287695531.135531,2067838.827839,79.058975,1,1,1,1,1,96.000000
2025-09-25 15:37:14.754,0.09214986713497997,0,0.2385392190985669,0.3200607981686008,0.8033656744087316,0,0.1131306522917713,0.4585543606088845,1.779711843582978,0,0.9204677931495316,1.727744328841067,1.980985943920184,0,0.8785766491615543,1.56485288992194,1.830825270650207,0,0.5979379037036683,1.396987255870377,866.7032967032967,778.8644688644689,825.2014652014652,853.0036630036631,861.8681318681319,743.8095238095239,-0.379333,0.016052,0.914978,0.104675,0.328979,0.112152,364754358.974359,287695531.135531,2067838.827839,79.058975,1,1,1,1,1,96.000000
2025-09-25 15:37:14.754,0.09214986713497997,0,0.2385392190985669,0.3200607981686008,0.8033656744087316,0,0.1131306522917713,0.4585543606088845,1.779711843582978,0,0.9204677931495316,1.727744328841067,1.980985943920184,0,0.8785766491615543,1.56485288992194,1.830825270650207,0,0.5979379037036683,1.396987255870377,811.0989010989011,873.1501831501831,822.3809523809524,810.2930402930403,806.2637362637363,845.7509157509157,-0.379333,0.016052,0.914978,0.104675,0.328979,0.112152,364754358.974359,287695531.135531,2067838.827839,79.058975,1,1,1,1,1,96.000000
2025-09-25 15:37:14.754,0.09214986713497997,0,0.2385392190985669,0.3200607981686008,0.8033656744087316,0,0.1131306522917713,0.4585543606088845,1.779711843582978,0,0.9204677931495316,1.727744328841067,1.980985943920184,0,0.8785766491615543,1.56485288992194,1.830825270650207,0,0.5979379037036683,1.396987255870377,823.5897435897436,994.0293040293041,809.0842490842491,810.2930402930403,848.5714285714286,1160.03663003663,-0.379333,0.016052,0.914978,0.104675,0.328979,0.112152,364754358.974359,287695531.135531,2067838.827839,79.058975,1,1,1,1,1,96.000000
2025-09-25 15:37:14.754,0.09214986713497997,0,0.2385392190985669,0.3200607981686008,0.8033656744087316,0,0.1131306522917713,0.4585543606088845,1.779711843582978,0,0.9204677931495316,1.727744328841067,1.980985943920184,0,0.8785766491615543,1.56485288992194,1.830825270650207,0,0.5979379037036683,1.396987255870377,869.92673992674,902.1611721611722,809.0842490842491,857.4358974358975,937.2161172161173,1304.688644688645,-0.379333,0.016052,0.914978,0.104675,0.328979,0.112152,364754358.974359,287695531.135531,2067838.827839,79.058975,1,1,1,1,1,96.000000
2025-09-25 15:37:14.754,0.09214986713497997,0,0.2385392190985669,0.3200607981686008,0.8033656744087316,0,0.1131306522917713,0.4585543606088845,1.779711843582978,0,0.9204677931495316,1.727744328841067,1.980985943920184,0,0.8785766491615543,1.56485288992194,1.830825270650207,0,0.5979379037036683,1.396987255870377,826.007326007326,673.6996336996338,811.0989010989011,855.0183150183151,916.6666666666667,1130.622710622711,-0.379333,0.016052,0.914978,0.104675,0.328979,0.112152,364754358.974359,287695531.135531,2067838.827839,79.058975,1,1,1,1,1,96.000000
2025-09-25 15:37:14.754,0.09214986713497997,0,0.2385392190985669,0.3200607981686008,0.8033656744087316,0,0.1131306522917713,0.4585543606088845,1.779711843582978,0,0.9204677931495316,1.727744328841067,1.980985943920184,0,0.8785766491615543,1.56485288992194,1.830825270650207,0,0.5979379037036683,1.396987255870377,687.8021978021978,562.0879120879121,793.3699633699634,753.0769230769231,864.6886446886447,765.9706959706959,-0.379333,0.016052,0.914978,0.104675,0.328979,0.112152,364754358.974359,287695531.135531,2067838.827839,79.058975,1,1,1,1,1,96.000000
2025-09-25 15:37:14.754,0.09214986713497997,0,0.2385392190985669,0.3200607981686008,0.8033656744087316,0,0.1131306522917713,0.4585543606088845,1.779711843582978,0,0.9204677931495316,1.727744328841067,1.980985943920184,0,0.8785766491615543,1.56485288992194,1.830825270650207,0,0.5979379037036683,1.396987255870377,672.0879120879121,779.2673992673992,780.4761904761905,715.2014652014652,795.3846153846154,649.1208791208792,-0.379333,0.016052,0.914978,0.104675,0.328979,0.112152,364754358.974359,287695531.135531,2067838.827839,79.058975,1,1,1,1,1,96.000000
2025-09-25 15:37:14.755,0.09214986713497997,0,0.2385392190985669,0.3200607981686008,0.8033656744087316,0,0.1131306522917713,0.4585543606088845,1.779711843582978,0,0.9204677931495316,1.727744328841067,1.980985943920184,0,0.8785766491615543,1.56485288992194,1.830825270650207,0,0.5979379037036683,1.396987255870377,775.6410256410256,868.3150183150184,786.5201465201466,779.6703296703297,821.5750915750916,698.2783882783883,-0.379333,0.016052,0.914978,0.104675,0.328979,0.112152,364754358.974359,287695531.135531,2067838.827839,79.058975,1,1,1,1,1,96.000000
2025-09-25 15:37:14.755,0.09214986713497997,0,0.2385392190985669,0.3200607981686008,0.8033656744087316,0,0.1131306522917713,0.4585543606088845,1.779711843582978,0,0.9204677931495316,1.727744328841067,1.980985943920184,0,0.8785766491615543,1.56485288992194,1.830825270650207,0,0.5979379037036683,1.396987255870377,838.4981684981685,811.0989010989011,797.3992673992674,822.3809523809524,838.901098901099,734.5421245421246,-0.379333,0.016052,0.914978,0.104675,0.328979,0.112152,364754358.974359,287695531.135531,2067838.827839,79.058975,1,1,1,1,1,96.000000
2025-09-25 15:37:14.755,0.09214986713497997,0,0.2385392190985669,0.3200607981686008,0.8033656744087316,0,0.1131306522917713,0.4585543606088845,1.779711843582978,0,0.9204677931495316,1.727744328841067,1.980985943920184,0,0.8785766491615543,1.56485288992194,1.830825270650207,0,0.5979379037036683,1.396987255870377,773.2234432234433,712.3809523809524,800.6227106227107,782.4908424908425,872.7472527472528,644.2857142857143,-0.379395,0.011108,0.908569,-0.209351,-0.112152,-0.029907,364635897.435897,287589157.509157,2070256.410256,79.058975,1,1,1,1,1,96.000000
2025-09-25 15:37:14.755,0.09214986713497997,0,0.2385392190985669,0.3200607981686008,0.8033656744087316,0,0.1131306522917713,0.4585543606088845,1.779711843582978,0,0.9204677931495316,1.727744328841067,1.980985943920184,0,0.8785766491615543,1.56485288992194,1.830825270650207,0,0.5979379037036683,1.396987255870377,762.3443223443223,815.5311355311355,796.5934065934066,765.5677655677656,866.7032967032967,616.8864468864469,-0.379395,0.011108,0.908569,-0.209351,-0.112152,-0.029907,364635897.435897,287589157.509157,2070256.410256,79.058975,1,1,1,1,1,96.000000
2025-09-25 15:37:14.755,0.09214986713497997,0,0.2385392190985669,0.3200607981686008,0.8033656744087316,0,0.1131306522917713,0.4585543606088845,1.779711843582978,0,0.9204677931495316,1.727744328841067,1.980985943920184,0,0.8785766491615543,1.56485288992194,1.830825270650207,0,0.5979379037036683,1.396987255870377,822.7838827838829,908.2051282051282,788.9377289377289,800.2197802197802,866.7032967032967,761.941391941392,-0.379395,0.011108,0.908569,-0.209351,-0.112152,-0.029907,364635897.435897,287589157.509157,2070256.410256,79.058975,1,1,1,1,1,96.000000
2025-09-25 15:37:14.755,0.09214986713497997,0,0.2385392190985669,0.3200607981686008,0.8033656744087316,0,0.1131306522917713,0.4585543606088845,1.779711843582978,0,0.9204677931495316,1.727744328841067,1.980985943920184,0,0.8785766491615543,1.56485288992194,1.830825270650207,0,0.5979379037036683,1.396987255870377,845.3479853479854,806.6666666666667,792.967032967033,828.8278388278388,887.6556776556777,788.5347985347986,-0.379395,0.011108,0.908569,-0.209351,-0.112152,-0.029907,364635897.435897,287589157.509157,2070256.410256,79.058975,1,1,1,1,1,96.000000
2025-09-25 15:37:14.755,0.09214986713497997,0,0.2385392190985669,0.3200607981686008,0.8033656744087316,0,0.1131306522917713,0.4585543606088845,1.779711843582978,0,0.9204677931495316,1.727744328841067,1.980985943920184,0,0.8785766491615543,1.56485288992194,1.830825270650207,0,0.5979379037036683,1.396987255870377,797.8021978021978,727.2893772893773,811.0989010989011,797.8021978021978,848.1684981684982,690.6227106227107,-0.379395,0.011108,0.908569,-0.209351,-0.112152,-0.029907,364635897.435897,287589157.509157,2070256.410256,79.058975,1,1,1,1,1,96.000000
2025-09-25 15:37:14.755,0.09214986713497997,0,0.2385392190985669,0.3200607981686008,0.8033656744087316,0,0.1131306522917713,0.4585543606088845,1.779711843582978,0,0.9204677931495316,1.727744328841067,1.980985943920184,0,0.8785766491615543,1.56485288992194,1.830825270650207,0,0.5979379037036683,1.396987255870377,817.5457875457876,933.5897435897436,819.1575091575091,792.967032967033,748.6446886446887,854.2124542124542,-0.379395,0.011108,0.908569,-0.209351,-0.112152,-0.029907,364635897.435897,287589157.509157,2070256.410256,79.058975,1,1,1,1,1,96.000000
2025-09-25 15:37:14.756,0.09214986713497997,0,0.2385392190985669,0.3200607981686008,0.8033656744087316,0,0.1131306522917713,0.4585543606088845,1.779711843582978,0,0.9204677931495316,1.727744328841067,1.980985943920184,0,0.8785766491615543,1.56485288992194,1.830825270650207,0,0.5979379037036683,1.396987255870377,863.8827838827839,1004.102564102564,804.2490842490843,827.6190476190476,816.3369963369963,1196.300366300366,-0.379395,0.011108,0.908569,-0.209351,-0.112152,-0.029907,364635897.435897,287589157.509157,2070256.410256,79.058975,1,1,1,1,1,96.000000
2025-09-25 15:37:14.756,0.09214986713497997,0,0.2385392190985669,0.3200607981686008,0.8033656744087316,0,0.1131306522917713,0.4585543606088845,1.779711843582978,0,0.9204677931495316,1.727744328841067,1.980985943920184,0,0.8785766491615543,1.56485288992194,1.830825270650207,0,0.5979379037036683,1.396987255870377,848.5714285714286,804.2490842490843,790.5494505494506,853.8095238095239,880.4029304029305,1278.498168498169,-0.379395,0.011108,0.908569,-0.209351,-0.112152,-0.029907,364635897.435897,287589157.509157,2070256.410256,79.058975,1,1,1,1,1,96.000000
2025-09-25 15:37:14.756,0.09214986713497997,0,0.2385392190985669,0.3200607981686008,0.8033656744087316,0,0.1131306522917713,0.4585543606088845,1.779711843582978,0,0.9204677931495316,1.727744328841067,1.980985943920184,0,0.8785766491615543,1.56485288992194,1.830825270650207,0,0.5979379037036683,1.396987255870377,751.4652014652015,543.5531135531136,792.967032967033,807.4725274725275,862.2710622710623,983.5531135531136,-0.379395,0.011108,0.908569,-0.209351,-0.112152,-0.029907,364635897.435897,287589157.509157,2070256.410256,79.058975,1,1,1,1,1,96.000000
2025-09-25 15:37:14.756,0.09214986713497997,0,0.2385392190985669,0.3200607981686008,0.8033656744087316,0,0.1131306522917713,0.4585543606088845,1.779711843582978,0,0.9204677931495316,1.727744328841067,1.980985943920184,0,0.8785766491615543,1.56485288992194,1.830825270650207,0,0.5979379037036683,1.396987255870377,684.981684981685,616.8864468864469,798.2051282051282,740.1831501831502,838.901098901099,666.4468864468864,-0.379395,0.011108,0.908569,-0.209351,-0.112152,-0.029907,364635897.435897,287589157.509157,2070256.410256,79.058975,1,1,1,1,1,96.000000
2025-09-25 15:37:14.756,0.09214986713497997,0,0.2385392190985669,0.3200607981686008,0.8033656744087316,0,0.1131306522917713,0.4585543606088845,1.779711843582978,0,0.9204677931495316,1.727744328841067,1.980985943920184,0,0.8785766491615543,1.56485288992194,1.830825270650207,0,0.5979379037036683,1.396987255870377,779.6703296703297,868.7179487179487,802.6373626373627,762.3443223443223,814.3223443223443,663.6263736263736,-0.379395,0.011108,0.908569,-0.209351,-0.112152,-0.029907,364635897.435897,287589157.509157,2070256.410256,79.058975,1,1,1,1,1,96.000000
2025-09-25 15:37:14.756,,,,,,,,,,,,,,,,,,,,,,,,,,,,,,,,,,,,,,,,,,,/muse/elements/jaw_clench
2025-09-25 15:37:14.756,0.09214986713497997,0,0.2584512716986688,0.3055637151881825,0.8033656744087316,0,0.1058208592697027,0.4425247875078953,1.779711843582978,0,0.9204677931495316,1.727744328841067,1.980985943920184,0,0.8911013249178883,1.550497554497306,1.830825270650207,0,0.5777084150102986,1.366477270987862,863.0769230769231,876.3736263736264,801.025641025641,817.1428571428571,854.2124542124542,728.4981684981685,-0.379395,0.011108,0.908569,-0.209351,-0.112152,-0.029907,364635897.435897,287589157.509157,2070256.410256,79.058975,1,1,1,1,1,96.000000
2025-09-25 15:37:14.757,0.09214986713497997,0,0.2584512716986688,0.3055637151881825,0.8033656744087316,0,0.1058208592697027,0.4425247875078953,1.779711843582978,0,0.9204677931495316,1.727744328841067,1.980985943920184,0,0.8911013249178883,1.550497554497306,1.830825270650207,0,0.5777084150102986,1.366477270987862,839.7069597069598,702.3076923076924,801.4285714285714,828.8278388278388,877.5824175824176,618.0952380952381,-0.381042,0.015076,0.909424,-0.650482,-0.957031,-0.448608,364745494.505494,287585934.065934,2063809.523810,79.058975,1,1,1,1,1,96.000000
2025-09-25 15:37:14.757,0.09214986713497997,0,0.2584512716986688,0.3055637151881825,0.8033656744087316,0,0.1058208592697027,0.4425247875078953,1.779711843582978,0,0.9204677931495316,1.727744328841067,1.980985943920184,0,0.8911013249178883,1.550497554497306,1.830825270650207,0,0.5777084150102986,1.366477270987862,756.7032967032967,762.3443223443223,805.8608058608058,777.6556776556777,810.2930402930403,556.0439560439561,-0.381042,0.015076,0.909424,-0.650482,-0.957031,-0.448608,364745494.505494,287585934.065934,2063809.523810,79.058975,1,1,1,1,1,96.000000
2025-09-25 15:37:14.757,0.09214986713497997,0,0.2584512716986688,0.3055637151881825,0.8033656744087316,0,0.1058208592697027,0.4425247875078953,1.779711843582978,0,0.9204677931495316,1.727744328841067,1.980985943920184,0,0.8911013249178883,1.550497554497306,1.830825270650207,0,0.5777084150102986,1.366477270987862,788.5347985347986,918.6813186813187,811.0989010989011,780.8791208791209,842.1245421245421,745.8241758241759,-0.381042,0.015076,0.909424,-0.650482,-0.957031,-0.448608,364745494.505494,287585934.065934,2063809.523810,79.058975,1,1,1,1,1,96.000000
2025-09-25 15:37:14.757,0.09214986713497997,0,0.2584512716986688,0.3055637151881825,0.8033656744087316,0,0.1058208592697027,0.4425247875078953,1.779711843582978,0,0.9204677931495316,1.727744328841067,1.980985943920184,0,0.8911013249178883,1.550497554497306,1.830825270650207,0,0.5777084150102986,1.366477270987862,873.956043956044,865.8974358974359,809.8901098901099,854.2124542124542,976.7032967032967,866.3003663003664,-0.381042,0.015076,0.909424,-0.650482,-0.957031,-0.448608,364745494.505494,287585934.065934,2063809.523810,79.058975,1,1,1,1,1,96.000000
2025-09-25 15:37:14.757,0.09214986713497997,0,0.2584512716986688,0.3055637151881825,0.8033656744087316,0,0.1058208592697027,0.4425247875078953,1.779711843582978,0,0.9204677931495316,1.727744328841067,1.980985943920184,0,0.8911013249178883,1.550497554497306,1.830825270650207,0,0.5777084150102986,1.366477270987862,874.7619047619048,776.8498168498169,804.6520146520147,879.5970695970697,932.7838827838829,830.8424908424909,-0.381042,0.015076,0.909424,-0.650482,-0.957031,-0.448608,364745494.505494,287585934.065934,2063809.523810,79.058975,1,1,1,1,1,96.000000
2025-09-25 15:37:14.757,0.09214986713497997,0,0.2584512716986688,0.3055637151881825,0.8033656744087316,0,0.1058208592697027,0.4425247875078953,1.779711843582978,0,0.9204677931495316,1.727744328841067,1.980985943920184,0,0.8911013249178883,1.550497554497306,1.830825270650207,0,0.5777084150102986,1.366477270987862,816.3369963369963,822.7838827838829,805.8608058608058,818.7545787545788,805.4578754578755,941.2454212454213,-0.381042,0.015076,0.909424,-0.650482,-0.957031,-0.448608,364745494.505494,287585934.065934,2063809.523810,79.058975,1,1,1,1,1,96.000000
2025-09-25 15:37:14.757,0.09214986713497997,0,0.2584512716986688,0.3055637151881825,0.8033656744087316,0,0.1058208592697027,0.4425247875078953,1.779711843582978,0,0.9204677931495316,1.727744328841067,1.980985943920184,0,0.8911013249178883,1.550497554497306,1.830825270650207,0,0.5777084150102986,1.366477270987862,779.6703296703297,830.8424908424909,813.5164835164835,792.5641025641025,736.959706959707,1090.732600732601,-0.381042,0.015076,0.909424,-0.650482,-0.957031,-0.448608,364745494.505494,287585934.065934,2063809.523810,79.058975,1,1,1,1,1,96.000000
2025-09-25 15:37:14.757,0.09214986713497997,0,0.2584512716986688,0.3055637151881825,0.8033656744087316,0,0.1058208592697027,0.4425247875078953,1.779711843582978,0,0.9204677931495316,1.727744328841067,1.980985943920184,0,0.8911013249178883,1.550497554497306,1.830825270650207,0,0.5777084150102986,1.366477270987862,783.2967032967033,752.2710622710623,807.0695970695971,825.6043956043957,819.5604395604396,974.6886446886447,-0.381042,0.015076,0.909424,-0.650482,-0.957031,-0.448608,364745494.505494,287585934.065934,2063809.523810,79.058975,1,1,1,1,1,96.000000
2025-09-25 15:37:14.758,0.09214986713497997,0,0.2584512716986688,0.3055637151881825,0.8033656744087316,0,0.1058208592697027,0.4425247875078953,1.779711843582978,0,0.9204677931495316,1.727744328841067,1.980985943920184,0,0.8911013249178883,1.550497554497306,1.830825270650207,0,0.5777084150102986,1.366477270987862,799.4139194139194,638.2417582417582,792.1611721611722,829.2307692307693,874.7619047619048,645.4945054945055,-0.381042,0.015076,0.909424,-0.650482,-0.957031,-0.448608,364745494.505494,287585934.065934,2063809.523810,79.058975,1,1,1,1,1,96.000000
2025-09-25 15:37:14.758,0.09214986713497997,0,0.2584512716986688,0.3055637151881825,0.8033656744087316,0,0.1058208592697027,0.4425247875078953,1.779711843582978,0,0.9204677931495316,1.727744328841067,1.980985943920184,0,0.8911013249178883,1.550497554497306,1.830825270650207,0,0.5777084150102986,1.366477270987862,730.5128205128206,710.7692307692308,786.1172161172161,749.4505494505495,707.5457875457876,477.8754578754579,-0.381042,0.015076,0.909424,-0.650482,-0.957031,-0.448608,364745494.505494,287585934.065934,2063809.523810,79.058975,1,1,1,1,1,96.000000
2025-09-25 15:37:14.758,0.09214986713497997,0,0.2584512716986688,0.3055637151881825,0.8033656744087316,0,0.1058208592697027,0.4425247875078953,1.779711843582978,0,0.9204677931495316,1.727744328841067,1.980985943920184,0,0.8911013249178883,1.550497554497306,1.830825270650207,0,0.5777084150102986,1.366477270987862,728.4981684981685,839.7069597069598,789.3406593406594,716.8131868131868,674.1025641025641,529.8534798534798,-0.381042,0.015076,0.909424,-0.650482,-0.957031,-0.448608,364745494.505494,287585934.065934,2063809.523810,79.058975,1,1,1,1,1,96.000000
2025-09-25 15:37:14.758,0.09214986713497997,0,0.2584512716986688,0.3055637151881825,0.8033656744087316,0,0.1058208592697027,0.4425247875078953,1.779711843582978,0,0.9204677931495316,1.727744328841067,1.980985943920184,0,0.8911013249178883,1.550497554497306,1.830825270650207,0,0.5777084150102986,1.366477270987862,832.8571428571429,965.8241758241759,794.981684981685,777.6556776556777,716.8131868131868,745.0183150183151,-0.381042,0.015076,0.909424,-0.650482,-0.957031,-0.448608,364745494.505494,287585934.065934,2063809.523810,79.058975,1,1,1,1,1,96.000000
2025-09-25 15:37:14.758,0.09214986713497997,0,0.2584512716986688,0.3055637151881825,0.8033656744087316,0,0.1058208592697027,0.4425247875078953,1.779711843582978,0,0.9204677931495316,1.727744328841067,1.980985943920184,0,0.8911013249178883,1.550497554497306,1.830825270650207,0,0.5777084150102986,1.366477270987862,914.2490842490843,834.0659340659341,806.2637362637363,871.941391941392,814.7252747252747,836.4835164835165,-0.380615,0.004272,0.912048,-0.186920,-1.398163,-0.942078,364745494.505494,287585934.065934,2063809.523810,79.058975,1,1,1,1,1,96.000000
2025-09-25 15:37:14.758,0.09214986713497997,0,0.2584512716986688,0.3055637151881825,0.8033656744087316,0,0.1058208592697027,0.4425247875078953,1.779711843582978,0,0.9204677931495316,1.727744328841067,1.980985943920184,0,0.8911013249178883,1.550497554497306,1.830825270650207,0,0.5777084150102986,1.366477270987862,840.5128205128206,647.9120879120879,814.3223443223443,857.8388278388279,844.9450549450549,636.2271062271062,-0.380615,0.004272,0.912048,-0.186920,-1.398163,-0.942078,364745494.505494,287585934.065934,2063809.523810,79.058975,1,1,1,1,1,96.000000
2025-09-25 15:37:14.758,0.09214986713497997,0,0.2584512716986688,0.3055637151881825,0.8033656744087316,0,0.1058208592697027,0.4425247875078953,1.779711843582978,0,0.9204677931495316,1.727744328841067,1.980985943920184,0,0.8911013249178883,1.550497554497306,1.830825270650207,0,0.5777084150102986,1.366477270987862,749.047619047619,813.1135531135532,801.4285714285714,764.3589743589744,798.2051282051282,687.8021978021978,-0.380615,0.004272,0.912048,-0.186920,-1.398163,-0.942078,364745494.505494,287585934.065934,2063809.523810,79.058975,1,1,1,1,1,96.000000
2025-09-25 15:37:14.758,0.09214986713497997,0,0.2584512716986688,0.3055637151881825,0.8033656744087316,0,0.1058208592697027,0.4425247875078953,1.779711843582978,0,0.9204677931495316,1.727744328841067,1.980985943920184,0,0.8911013249178883,1.550497554497306,1.830825270650207,0,0.5777084150102986,1.366477270987862,749.047619047619,813.919413919414,795.3846153846154,761.1355311355312,871.5384615384615,775.2380952380953,-0.380615,0.004272,0.912048,-0.186920,-1.398163,-0.942078,364745494.505494,287585934.065934,2063809.523810,79.058975,1,1,1,1,1,96.000000
2025-09-25 15:37:14.758,0.09214986713497997,0,0.2584512716986688,0.3055637151881825,0.8033656744087316,0,0.1058208592697027,0.4425247875078953,1.779711843582978,0,0.9204677931495316,1.727744328841067,1.980985943920184,0,0.8911013249178883,1.550497554497306,1.830825270650207,0,0.5777084150102986,1.366477270987862,813.5164835164835,894.5054945054945,795.3846153846154,817.948717948718,875.1648351648352,857.8388278388279,-0.380615,0.004272,0.912048,-0.186920,-1.398163,-0.942078,364745494.505494,287585934.065934,2063809.523810,79.058975,1,1,1,1,1,96.000000
2025-09-25 15:37:14.758,0.09214986713497997,0,0.2584512716986688,0.3055637151881825,0.8033656744087316,0,0.1058208592697027,0.4425247875078953,1.779711843582978,0,0.9204677931495316,1.727744328841067,1.980985943920184,0,0.8911013249178883,1.550497554497306,1.830825270650207,0,0.5777084150102986,1.366477270987862,867.1062271062272,925.5311355311355,796.1904761904763,838.0952380952381,842.1245421245421,1101.208791208791,-0.380615,0.004272,0.912048,-0.186920,-1.398163,-0.942078,364745494.505494,287585934.065934,2063809.523810,79.058975,1,1,1,1,1,96.000000
2025-09-25 15:37:14.759,0.09214986713497997,0,0.2584512716986688,0.3055637151881825,0.8033656744087316,0,0.1058208592697027,0.4425247875078953,1.779711843582978,0,0.9204677931495316,1.727744328841067,1.980985943920184,0,0.8911013249178883,1.550497554497306,1.830825270650207,0,0.5777084150102986,1.366477270987862,799.0109890109891,789.3406593406594,799.0109890109891,798.2051282051282,874.3589743589744,1257.948717948718,-0.380615,0.004272,0.912048,-0.186920,-1.398163,-0.942078,364745494.505494,287585934.065934,2063809.523810,79.058975,1,1,1,1,1,96.000000
2025-09-25 15:37:14.759,0.09214986713497997,0,0.2584512716986688,0.3055637151881825,0.8033656744087316,0,0.1058208592697027,0.4425247875078953,1.779711843582978,0,0.9204677931495316,1.727744328841067,1.980985943920184,0,0.8911013249178883,1.550497554497306,1.830825270650207,0,0.5777084150102986,1.366477270987862,755.8974358974359,692.2344322344322,801.025641025641,774.4322344322345,880.4029304029305,1191.868131868132,-0.380615,0.004272,0.912048,-0.186920,-1.398163,-0.942078,364745494.505494,287585934.065934,2063809.523810,79.058975,1,1,1,1,1,96.000000
2025-09-25 15:37:14.759,0.09214986713497997,0,0.2584512716986688,0.3055637151881825,0.8033656744087316,0,0.1058208592697027,0.4425247875078953,1.779711843582978,0,0.9204677931495316,1.727744328841067,1.980985943920184,0,0.8911013249178883,1.550497554497306,1.830825270650207,0,0.5777084150102986,1.366477270987862,764.7619047619048,574.5787545787546,798.6080586080586,807.8754578754579,876.7765567765568,786.1172161172161,-0.380615,0.004272,0.912048,-0.186920,-1.398163,-0.942078,364745494.505494,287585934.065934,2063809.523810,79.058975,1,1,1,1,1,96.000000
2025-09-25 15:37:14.759,0.09214986713497997,0,0.2584512716986688,0.3055637151881825,0.8033656744087316,0,0.1058208592697027,0.4425247875078953,1.779711843582978,0,0.9204677931495316,1.727744328841067,1.980985943920184,0,0.8911013249178883,1.550497554497306,1.830825270650207,0,0.5777084150102986,1.366477270987862,807.4725274725275,739.7802197802198,800.2197802197802,851.3919413919414,748.6446886446887,484.7252747252747,-0.380615,0.004272,0.912048,-0.186920,-1.398163,-0.942078,364745494.505494,287585934.065934,2063809.523810,79.058975,1,1,1,1,1,96.000000
2025-09-25 15:37:14.759,0.09214986713497997,0,0.2584512716986688,0.3055637151881825,0.8033656744087316,0,0.1058208592697027,0.4425247875078953,1.779711843582978,0,0.9204677931495316,1.727744328841067,1.980985943920184,0,0.8911013249178883,1.550497554497306,1.830825270650207,0,0.5777084150102986,1.366477270987862,873.1501831501831,947.2893772893773,809.0842490842491,844.1391941391942,734.1391941391942,616.4835164835165,-0.380615,0.004272,0.912048,-0.186920,-1.398163,-0.942078,364745494.505494,287585934.065934,2063809.523810,79.058975,1,1,1,1,1,96.000000
2025-09-25 15:37:14.759,0.09214986713497997,0,0.2584512716986688,0.3055637151881825,0.8033656744087316,0,0.1058208592697027,0.4425247875078953,1.779711843582978,0,0.9204677931495316,1.727744328841067,1.980985943920184,0,0.8911013249178883,1.550497554497306,1.830825270650207,0,0.5777084150102986,1.366477270987862,853.0036630036631,851.3919413919414,814.7252747252747,814.3223443223443,861.8681318681319,737.3626373626374,-0.380615,0.004272,0.912048,-0.186920,-1.398163,-0.942078,364745494.505494,287585934.065934,2063809.523810,79.058975,1,1,1,1,1,96.000000
2025-09-25 15:37:14.759,0.09214986713497997,0,0.2584512716986688,0.3055637151881825,0.8033656744087316,0,0.1058208592697027,0.4425247875078953,1.779711843582978,0,0.9204677931495316,1.727744328841067,1.980985943920184,0,0.8911013249178883,1.550497554497306,1.830825270650207,0,0.5777084150102986,1.366477270987862,769.5970695970697,754.6886446886447,802.2344322344322,791.7582417582418,885.6410256410256,680.1465201465202,-0.380615,0.004272,0.912048,-0.186920,-1.398163,-0.942078,364745494.505494,287585934.065934,2063809.523810,79.058975,1,1,1,1,1,96.000000
2025-09-25 15:37:14.760,0.09214986713497997,0,0.2804519624889125,0.2923584890468097,0.8033656744087316,0,0.10546357958811,0.434289200388394,1.779711843582978,0,0.9204677931495316,1.727744328841067,1.980985943920184,0,0.9021126574032871,1.543227048062919,1.830825270650207,0,0.5612123370010369,1.345724385591618,794.5787545787546,857.4358974358975,792.5641025641025,809.4871794871796,837.6923076923077,702.3076923076924,-0.380615,0.004272,0.912048,-0.186920,-1.398163,-0.942078,364745494.505494,287585934.065934,2063809.523810,79.058975,1,1,1,1,1,96.000000
2025-09-25 15:37:14.760,0.09214986713497997,0,0.2804519624889125,0.2923584890468097,0.8033656744087316,0,0.10546357958811,0.434289200388394,1.779711843582978,0,0.9204677931495316,1.727744328841067,1.980985943920184,0,0.9021126574032871,1.543227048062919,1.830825270650207,0,0.5612123370010369,1.345724385591618,805.4578754578755,882.4175824175825,793.3699633699634,788.5347985347986,804.2490842490843,858.6446886446887,-0.380615,0.004272,0.912048,-0.186920,-1.398163,-0.942078,364745494.505494,287585934.065934,2063809.523810,79.058975,1,1,1,1,1,96.000000
2025-09-25 15:37:14.760,0.09214986713497997,0,0.2804519624889125,0.2923584890468097,0.8033656744087316,0,0.10546357958811,0.434289200388394,1.779711843582978,0,0.9204677931495316,1.727744328841067,1.980985943920184,0,0.9021126574032871,1.543227048062919,1.830825270650207,0,0.5612123370010369,1.345724385591618,773.6263736263736,777.2527472527473,791.7582417582418,764.3589743589744,823.5897435897436,954.9450549450549,-0.380615,0.004272,0.912048,-0.186920,-1.398163,-0.942078,364745494.505494,287585934.065934,2063809.523810,79.058975,1,1,1,1,1,96.000000
2025-09-25 15:37:14.760,0.09214986713497997,0,0.2804519624889125,0.2923584890468097,0.8033656744087316,0,0.10546357958811,0.434289200388394,1.779711843582978,0,0.9204677931495316,1.727744328841067,1.980985943920184,0,0.9021126574032871,1.543227048062919,1.830825270650207,0,0.5612123370010369,1.345724385591618,796.5934065934066,708.3516483516484,805.8608058608058,804.2490842490843,888.8644688644689,806.2637362637363,-0.380615,0.004272,0.912048,-0.186920,-1.398163,-0.942078,364745494.505494,287585934.065934,2063809.523810,79.058975,1,1,1,1,1,96.000000
2025-09-25 15:37:14.760,0.09214986713497997,0,0.2804519624889125,0.2923584890468097,0.8033656744087316,0,0.10546357958811,0.434289200388394,1.779711843582978,0,0.9204677931495316,1.727744328841067,1.980985943920184,0,0.9021126574032871,1.543227048062919,1.830825270650207,0,0.5612123370010369,1.345724385591618,909.8168498168499,1026.666666666667,823.1868131868132,878.7912087912089,830.8424908424909,990.8058608058608,-0.380615,0.004272,0.912048,-0.186920,-1.398163,-0.942078,364745494.505494,287585934.065934,2063809.523810,79.058975,1,1,1,1,1,96.000000
2025-09-25 15:37:14.760,0.09214986713497997,0,0.2804519624889125,0.2923584890468097,0.8033656744087316,0,0.10546357958811,0.434289200388394,1.779711843582978,0,0.9204677931495316,1.727744328841067,1.980985943920184,0,0.9021126574032871,1.543227048062919,1.830825270650207,0,0.5612123370010369,1.345724385591618,923.5164835164835,866.3003663003664,821.5750915750916,890.4761904761905,896.9230769230769,1307.106227106227,-0.380615,0.004272,0.912048,-0.186920,-1.398163,-0.942078,364745494.505494,287585934.065934,2063809.523810,79.058975,1,1,1,1,1,96.000000
2025-09-25 15:37:14.760,0.09214986713497997,0,0.2804519624889125,0.2923584890468097,0.8033656744087316,0,0.10546357958811,0.434289200388394,1.779711843582978,0,0.9204677931495316,1.727744328841067,1.980985943920184,0,0.9021126574032871,1.543227048062919,1.830825270650207,0,0.5612123370010369,1.345724385591618,761.1355311355312,529.8534798534798,814.7252747252747,799.4139194139194,1008.534798534799,1022.637362637363,-0.380615,0.004272,0.912048,-0.186920,-1.398163,-0.942078,364745494.505494,287585934.065934,2063809.523810,79.058975,1,1,1,1,1,96.000000
2025-09-25 15:37:14.761,0.09214986713497997,0,0.2804519624889125,0.2923584890468097,0.8033656744087316,0,0.10546357958811,0.434289200388394,1.779711843582978,0,0.9204677931495316,1.727744328841067,1.980985943920184,0,0.9021126574032871,1.543227048062919,1.830825270650207,0,0.5612123370010369,1.345724385591618,687.3992673992674,639.047619047619,807.8754578754579,748.2417582417582,924.7252747252747,682.967032967033,-0.380615,0.004272,0.912048,-0.186920,-1.398163,-0.942078,364745494.505494,287585934.065934,2063809.523810,79.058975,1,1,1,1,1,96.000000
2025-09-25 15:37:14.761,0.09214986713497997,0,0.2804519624889125,0.2923584890468097,0.8033656744087316,0,0.10546357958811,0.434289200388394,1.779711843582978,0,0.9204677931495316,1.727744328841067,1.980985943920184,0,0.9021126574032871,1.543227048062919,1.830825270650207,0,0.5612123370010369,1.345724385591618,768.7912087912088,875.5677655677656,799.0109890109891,785.7142857142858,893.2967032967033,677.3260073260074,-0.380615,0.004272,0.912048,-0.186920,-1.398163,-0.942078,364745494.505494,287585934.065934,2063809.523810,79.058975,1,1,1,1,1,96.000000
2025-09-25 15:37:14.761,0.09214986713497997,0,0.2804519624889125,0.2923584890468097,0.8033656744087316,0,0.10546357958811,0.434289200388394,1.779711843582978,0,0.9204677931495316,1.727744328841067,1.980985943920184,0,0.9021126574032871,1.543227048062919,1.830825270650207,0,0.5612123370010369,1.345724385591618,823.5897435897436,833.2600732600733,795.7875457875458,812.3076923076924,884.8351648351648,769.5970695970697,-0.380615,0.004272,0.912048,-0.186920,-1.398163,-0.942078,364745494.505494,287585934.065934,2063809.523810,79.058975,1,1,1,1,1,96.000000
2025-09-25 15:37:14.761,0.09214986713497997,0,0.2804519624889125,0.2923584890468097,0.8033656744087316,0,0.10546357958811,0.434289200388394,1.779711843582978,0,0.9204677931495316,1.727744328841067,1.980985943920184,0,0.9021126574032871,1.543227048062919,1.830825270650207,0,0.5612123370010369,1.345724385591618,763.5531135531136,779.6703296703297,794.1758241758242,762.7472527472528,889.2673992673992,778.0586080586081,-0.380615,0.004272,0.912048,-0.186920,-1.398163,-0.942078,364745494.505494,287585934.065934,2063809.523810,79.058975,1,1,1,1,1,96.000000
2025-09-25 15:37:14.761,0.09214986713497997,0,0.2804519624889125,0.2923584890468097,0.8033656744087316,0,0.10546357958811,0.434289200388394,1.779711843582978,0,0.9204677931495316,1.727744328841067,1.980985943920184,0,0.9021126574032871,1.543227048062919,1.830825270650207,0,0.5612123370010369,1.345724385591618,763.956043956044,863.8827838827839,792.5641025641025,751.8681318681319,964.2124542124542,844.5421245421246,-0.374573,-0.000610,0.915588,0.149536,-1.502838,-0.186920,364793040.293040,287629450.549451,2065421.245421,79.058975,1,1,1,1,1,96.000000
2025-09-25 15:37:14.761,0.09214986713497997,0,0.2804519624889125,0.2923584890468097,0.8033656744087316,0,0.10546357958811,0.434289200388394,1.779711843582978,0,0.9204677931495316,1.727744328841067,1.980985943920184,0,0.9021126574032871,1.543227048062919,1.830825270650207,0,0.5612123370010369,1.345724385591618,785.7142857142858,783.2967032967033,796.5934065934066,796.5934065934066,931.1721611721612,810.2930402930403,-0.374573,-0.000610,0.915588,0.149536,-1.502838,-0.186920,364793040.293040,287629450.549451,2065421.245421,79.058975,1,1,1,1,1,96.000000
2025-09-25 15:37:14.761,0.09214986713497997,0,0.2804519624889125,0.2923584890468097,0.8033656744087316,0,0.10546357958811,0.434289200388394,1.779711843582978,0,0.9204677931495316,1.727744328841067,1.980985943920184,0,0.9021126574032871,1.543227048062919,1.830825270650207,0,0.5612123370010369,1.345724385591618,815.934065934066,788.5347985347986,801.025641025641,831.2454212454213,820.7692307692308,731.3186813186813,-0.374573,-0.000610,0.915588,0.149536,-1.502838,-0.186920,364793040.293040,287629450.549451,2065421.245421,79.058975,1,1,1,1,1,96.000000
2025-09-25 15:37:14.761,0.09214986713497997,0,0.2804519624889125,0.2923584890468097,0.8033656744087316,0,0.10546357958811,0.434289200388394,1.779711843582978,0,0.9204677931495316,1.727744328841067,1.980985943920184,0,0.9021126574032871,1.543227048062919,1.830825270650207,0,0.5612123370010369,1.345724385591618,792.5641025641025,755.0915750915751,801.025641025641,796.5934065934066,825.2014652014652,724.0659340659341,-0.374573,-0.000610,0.915588,0.149536,-1.502838,-0.186920,364793040.293040,287629450.549451,2065421.245421,79.058975,1,1,1,1,1,96.000000
2025-09-25 15:37:14.761,0.09214986713497997,0,0.2804519624889125,0.2923584890468097,0.8033656744087316,0,0.10546357958811,0.434289200388394,1.779711843582978,0,0.9204677931495316,1.727744328841067,1.980985943920184,0,0.9021126574032871,1.543227048062919,1.830825270650207,0,0.5612123370010369,1.345724385591618,762.7472527472528,771.6117216117216,805.0549450549451,772.8205128205128,818.3516483516484,669.6703296703297,-0.374573,-0.000610,0.915588,0.149536,-1.502838,-0.186920,364793040.293040,287629450.549451,2065421.245421,79.058975,1,1,1,1,1,96.000000
2025-09-25 15:37:14.762,0.09214986713497997,0,0.2804519624889125,0.2923584890468097,0.8033656744087316,0,0.10546357958811,0.434289200388394,1.779711843582978,0,0.9204677931495316,1.727744328841067,1.980985943920184,0,0.9021126574032871,1.543227048062919,1.830825270650207,0,0.5612123370010369,1.345724385591618,842.9304029304029,977.5091575091575,808.2783882783883,815.934065934066,765.9706959706959,902.5641025641025,-0.374573,-0.000610,0.915588,0.149536,-1.502838,-0.186920,364793040.293040,287629450.549451,2065421.245421,79.058975,1,1,1,1,1,96.000000
2025-09-25 15:37:14.762,0.09214986713497997,0,0.2804519624889125,0.2923584890468097,0.8033656744087316,0,0.10546357958811,0.434289200388394,1.779711843582978,0,0.9204677931495316,1.727744328841067,1.980985943920184,0,0.9021126574032871,1.543227048062919,1.830825270650207,0,0.5612123370010369,1.345724385591618,896.1172161172161,858.2417582417582,812.3076923076924,855.8241758241759,818.7545787545788,1140.29304029304,-0.374573,-0.000610,0.915588,0.149536,-1.502838,-0.186920,364793040.293040,287629450.549451,2065421.245421,79.058975,1,1,1,1,1,96.000000
2025-09-25 15:37:14.762,0.09214986713497997,0,0.2804519624889125,0.2923584890468097,0.8033656744087316,0,0.10546357958811,0.434289200388394,1.779711843582978,0,0.9204677931495316,1.727744328841067,1.980985943920184,0,0.9021126574032871,1.543227048062919,1.830825270650207,0,0.5612123370010369,1.345724385591618,813.5164835164835,742.6007326007326,813.919413919414,822.3809523809524,832.4542124542124,1104.835164835165,-0.374573,-0.000610,0.915588,0.149536,-1.502838,-0.186920,364793040.293040,287629450.549451,2065421.245421,79.058975,1,1,1,1,1,96.000000
2025-09-25 15:37:14.762,0.09214986713497997,0,0.2804519624889125,0.2923584890468097,0.8033656744087316,0,0.10546357958811,0.434289200388394,1.779711843582978,0,0.9204677931495316,1.727744328841067,1.980985943920184,0,0.9021126574032871,1.543227048062919,1.830825270650207,0,0.5612123370010369,1.345724385591618,742.6007326007326,661.6117216117216,809.0842490842491,765.1648351648352,859.4505494505495,998.4615384615385,-0.374573,-0.000610,0.915588,0.149536,-1.502838,-0.186920,364793040.293040,287629450.549451,2065421.245421,79.058975,1,1,1,1,1,96.000000
2025-09-25 15:37:14.762,0.09214986713497997,0,0.2804519624889125,0.2923584890468097,0.8033656744087316,0,0.10546357958811,0.434289200388394,1.779711843582978,0,0.9204677931495316,1.727744328841067,1.980985943920184,0,0.9021126574032871,1.543227048062919,1.830825270650207,0,0.5612123370010369,1.345724385591618,726.4835164835165,599.1575091575091,807.4725274725275,763.1501831501831,855.0183150183151,732.9304029304029,-0.374573,-0.000610,0.915588,0.149536,-1.502838,-0.186920,364793040.293040,287629450.549451,2065421.245421,79.058975,1,1,1,1,1,96.000000
2025-09-25 15:37:14.762,0.09214986713497997,0,0.2804519624889125,0.2923584890468097,0.8033656744087316,0,0.10546357958811,0.434289200388394,1.779711843582978,0,0.9204677931495316,1.727744328841067,1.980985943920184,0,0.9021126574032871,1.543227048062919,1.830825270650207,0,0.5612123370010369,1.345724385591618,834.0659340659341,827.2161172161173,812.3076923076924,832.8571428571429,778.4615384615385,603.1868131868132,-0.374573,-0.000610,0.915588,0.149536,-1.502838,-0.186920,364793040.293040,287629450.549451,2065421.245421,79.058975,1,1,1,1,1,96.000000
2025-09-25 15:37:14.762,0.09214986713497997,0,0.2804519624889125,0.2923584890468097,0.8033656744087316,0,0.10546357958811,0.434289200388394,1.779711843582978,0,0.9204677931495316,1.727744328841067,1.980985943920184,0,0.9021126574032871,1.543227048062919,1.830825270650207,0,0.5612123370010369,1.345724385591618,886.0439560439561,835.6776556776557,811.5018315018315,855.0183150183151,762.3443223443223,635.0183150183151,-0.374573,-0.000610,0.915588,0.149536,-1.502838,-0.186920,364793040.293040,287629450.549451,2065421.245421,79.058975,1,1,1,1,1,96.000000
2025-09-25 15:37:14.762,0.09214986713497997,0,0.2804519624889125,0.2923584890468097,0.8033656744087316,0,0.10546357958811,0.434289200388394,1.779711843582978,0,0.9204677931495316,1.727744328841067,1.980985943920184,0,0.9021126574032871,1.543227048062919,1.830825270650207,0,0.5612123370010369,1.345724385591618,807.4725274725275,805.0549450549451,803.040293040293,801.4285714285714,825.2014652014652,634.2124542124542,-0.378296,0.006836,0.908936,0.216827,-1.188812,0.695343,364793040.293040,287629450.549451,2065421.245421,79.058975,1,1,1,1,1,96.000000
2025-09-25 15:37:14.762,0.09214986713497997,0,0.2804519624889125,0.2923584890468097,0.8033656744087316,0,0.10546357958811,0.434289200388394,1.779711843582978,0,0.9204677931495316,1.727744328841067,1.980985943920184,0,0.9021126574032871,1.543227048062919,1.830825270650207,0,0.5612123370010369,1.345724385591618,781.6849816849817,841.3186813186813,799.4139194139194,782.893772893773,876.3736263736264,672.0879120879121,-0.378296,0.006836,0.908936,0.216827,-1.188812,0.695343,364793040.293040,287629450.549451,2065421.245421,79.058975,1,1,1,1,1,96.000000
2025-09-25 15:37:14.762,0.09214986713497997,0,0.2804519624889125,0.2923584890468097,0.8033656744087316,0,0.10546357958811,0.434289200388394,1.779711843582978,0,0.9204677931495316,1.727744328841067,1.980985943920184,0,0.9021126574032871,1.543227048062919,1.830825270650207,0,0.5612123370010369,1.345724385591618,786.5201465201466,836.4835164835165,795.7875457875458,803.040293040293,844.1391941391942,710.7692307692308,-0.378296,0.006836,0.908936,0.216827,-1.188812,0.695343,364793040.293040,287629450.549451,2065421.245421,79.058975,1,1,1,1,1,96.000000
2025-09-25 15:37:14.763,,,,,,,,,,,,,,,,,,,,,,,,,,,,,,,,,,,,,,,,,,,/muse/elements/jaw_clench
2025-09-25 15:37:14.762,0.08818810704867852,0,0.3151509941745694,0.2873019472548037,0.7797549496647128,0,0.1165110328398387,0.4234097886380939,1.776909185261,0,0.9012259204247917,1.714080667293584,1.995295771749248,0,0.9054804208652152,1.545065496989792,1.806086995334945,0,0.5513479436938372,1.339963653325636,798.2051282051282,777.2527472527473,801.4285714285714,817.1428571428571,852.6007326007326,714.7985347985348,-0.378296,0.006836,0.908936,0.216827,-1.188812,0.695343,364793040.293040,287629450.549451,2065421.245421,79.058975,1,1,1,1,1,96.000000
2025-09-25 15:37:14.763,0.08818810704867852,0,0.3151509941745694,0.2873019472548037,0.7797549496647128,0,0.1165110328398387,0.4234097886380939,1.776909185261,0,0.9012259204247917,1.714080667293584,1.995295771749248,0,0.9054804208652152,1.545065496989792,1.806086995334945,0,0.5513479436938372,1.339963653325636,739.3772893772893,747.8388278388279,804.6520146520147,762.7472527472528,853.4065934065934,677.7289377289377,-0.378296,0.006836,0.908936,0.216827,-1.188812,0.695343,364793040.293040,287629450.549451,2065421.245421,79.058975,1,1,1,1,1,96.000000
2025-09-25 15:37:14.763,0.08818810704867852,0,0.3151509941745694,0.2873019472548037,0.7797549496647128,0,0.1165110328398387,0.4234097886380939,1.776909185261,0,0.9012259204247917,1.714080667293584,1.995295771749248,0,0.9054804208652152,1.545065496989792,1.806086995334945,0,0.5513479436938372,1.339963653325636,756.7032967032967,948.901098901099,805.4578754578755,757.9120879120879,781.2820512820513,910.6227106227107,-0.378296,0.006836,0.908936,0.216827,-1.188812,0.695343,364793040.293040,287629450.549451,2065421.245421,79.058975,1,1,1,1,1,96.000000
2025-09-25 15:37:14.763,0.08818810704867852,0,0.3151509941745694,0.2873019472548037,0.7797549496647128,0,0.1165110328398387,0.4234097886380939,1.776909185261,0,0.9012259204247917,1.714080667293584,1.995295771749248,0,0.9054804208652152,1.545065496989792,1.806086995334945,0,0.5513479436938372,1.339963653325636,848.974358974359,935.2014652014652,810.2930402930403,835.2747252747253,821.1721611721612,1192.271062271062,-0.378296,0.006836,0.908936,0.216827,-1.188812,0.695343,364793040.293040,287629450.549451,2065421.245421,79.058975,1,1,1,1,1,96.000000
2025-09-25 15:37:14.763,0.08818810704867852,0,0.3151509941745694,0.2873019472548037,0.7797549496647128,0,0.1165110328398387,0.4234097886380939,1.776909185261,0,0.9012259204247917,1.714080667293584,1.995295771749248,0,0.9054804208652152,1.545065496989792,1.806086995334945,0,0.5513479436938372,1.339963653325636,868.7179487179487,696.2637362637363,817.5457875457876,882.8205128205128,925.934065934066,1028.681318681319,-0.378296,0.006836,0.908936,0.216827,-1.188812,0.695343,364793040.293040,287629450.549451,2065421.245421,79.058975,1,1,1,1,1,96.000000
2025-09-25 15:37:14.763,0.08818810704867852,0,0.3151509941745694,0.2873019472548037,0.7797549496647128,0,0.1165110328398387,0.4234097886380939,1.776909185261,0,0.9012259204247917,1.714080667293584,1.995295771749248,0,0.9054804208652152,1.545065496989792,1.806086995334945,0,0.5513479436938372,1.339963653325636,781.2820512820513,599.5604395604396,813.919413919414,819.1575091575091,882.014652014652,720.8424908424909,-0.378296,0.006836,0.908936,0.216827,-1.188812,0.695343,364793040.293040,287629450.549451,2065421.245421,79.058975,1,1,1,1,1,96.000000
2025-09-25 15:37:14.763,0.08818810704867852,0,0.3151509941745694,0.2873019472548037,0.7797549496647128,0,0.1165110328398387,0.4234097886380939,1.776909185261,0,0.9012259204247917,1.714080667293584,1.995295771749248,0,0.9054804208652152,1.545065496989792,1.806086995334945,0,0.5513479436938372,1.339963653325636,716.8131868131868,788.9377289377289,801.8315018315019,749.047619047619,684.5787545787546,682.967032967033,-0.378296,0.006836,0.908936,0.216827,-1.188812,0.695343,364793040.293040,287629450.549451,2065421.245421,79.058975,1,1,1,1,1,96.000000
2025-09-25 15:37:14.763,0.08818810704867852,0,0.3151509941745694,0.2873019472548037,0.7797549496647128,0,0.1165110328398387,0.4234097886380939,1.776909185261,0,0.9012259204247917,1.714080667293584,1.995295771749248,0,0.9054804208652152,1.545065496989792,1.806086995334945,0,0.5513479436938372,1.339963653325636,775.6410256410256,904.981684981685,801.8315018315019,789.7435897435897,699.8901098901099,796.1904761904763,-0.378296,0.006836,0.908936,0.216827,-1.188812,0.695343,364793040.293040,287629450.549451,2065421.245421,79.058975,1,1,1,1,1,96.000000
2025-09-25 15:37:14.764,0.08818810704867852,0,0.3151509941745694,0.2873019472548037,0.7797549496647128,0,0.1165110328398387,0.4234097886380939,1.776909185261,0,0.9012259204247917,1.714080667293584,1.995295771749248,0,0.9054804208652152,1.545065496989792,1.806086995334945,0,0.5513479436938372,1.339963653325636,888.0586080586081,837.2893772893773,811.5018315018315,871.5384615384615,891.6849816849817,805.4578754578755,-0.378296,0.006836,0.908936,0.216827,-1.188812,0.695343,364793040.293040,287629450.549451,2065421.245421,79.058975,1,1,1,1,1,96.000000
2025-09-25 15:37:14.764,0.08818810704867852,0,0.3151509941745694,0.2873019472548037,0.7797549496647128,0,0.1165110328398387,0.4234097886380939,1.776909185261,0,0.9012259204247917,1.714080667293584,1.995295771749248,0,0.9054804208652152,1.545065496989792,1.806086995334945,0,0.5513479436938372,1.339963653325636,824.3956043956044,723.6630036630037,814.7252747252747,822.3809523809524,897.3260073260074,723.2600732600732,-0.375610,0.010193,0.917969,0.186920,-1.308441,0.605621,364834139.194139,287739047.619048,2004175.824176,79.058975,1,1,1,1,1,96.000000
2025-09-25 15:37:14.764,0.08818810704867852,0,0.3151509941745694,0.2873019472548037,0.7797549496647128,0,0.1165110328398387,0.4234097886380939,1.776909185261,0,0.9012259204247917,1.714080667293584,1.995295771749248,0,0.9054804208652152,1.545065496989792,1.806086995334945,0,0.5513479436938372,1.339963653325636,713.1868131868132,760.7326007326008,807.4725274725275,739.7802197802198,823.1868131868132,670.4761904761905,-0.375610,0.010193,0.917969,0.186920,-1.308441,0.605621,364834139.194139,287739047.619048,2004175.824176,79.058975,1,1,1,1,1,96.000000
2025-09-25 15:37:14.764,0.08818810704867852,0,0.3151509941745694,0.2873019472548037,0.7797549496647128,0,0.1165110328398387,0.4234097886380939,1.776909185261,0,0.9012259204247917,1.714080667293584,1.995295771749248,0,0.9054804208652152,1.545065496989792,1.806086995334945,0,0.5513479436938372,1.339963653325636,751.4652014652015,859.8534798534798,794.5787545787546,754.2857142857143,802.2344322344322,728.0952380952381,-0.375610,0.010193,0.917969,0.186920,-1.308441,0.605621,364834139.194139,287739047.619048,2004175.824176,79.058975,1,1,1,1,1,96.000000
2025-09-25 15:37:14.764,0.08818810704867852,0,0.3151509941745694,0.2873019472548037,0.7797549496647128,0,0.1165110328398387,0.4234097886380939,1.776909185261,0,0.9012259204247917,1.714080667293584,1.995295771749248,0,0.9054804208652152,1.545065496989792,1.806086995334945,0,0.5513479436938372,1.339963653325636,878.3882783882784,919.0842490842491,796.996336996337,836.4835164835165,870.7326007326008,875.1648351648352,-0.375610,0.010193,0.917969,0.186920,-1.308441,0.605621,364834139.194139,287739047.619048,2004175.824176,79.058975,1,1,1,1,1,96.000000
2025-09-25 15:37:14.764,0.08818810704867852,0,0.3151509941745694,0.2873019472548037,0.7797549496647128,0,0.1165110328398387,0.4234097886380939,1.776909185261,0,0.9012259204247917,1.714080667293584,1.995295771749248,0,0.9054804208652152,1.545065496989792,1.806086995334945,0,0.5513479436938372,1.339963653325636,871.5384615384615,748.6446886446887,807.0695970695971,855.4212454212454,932.3809523809524,884.8351648351648,-0.375610,0.010193,0.917969,0.186920,-1.308441,0.605621,364834139.194139,287739047.619048,2004175.824176,79.058975,1,1,1,1,1,96.000000
2025-09-25 15:37:14.764,0.08818810704867852,0,0.3151509941745694,0.2873019472548037,0.7797549496647128,0,0.1165110328398387,0.4234097886380939,1.776909185261,0,0.9012259204247917,1.714080667293584,1.995295771749248,0,0.9054804208652152,1.545065496989792,1.806086995334945,0,0.5513479436938372,1.339963653325636,754.2857142857143,776.4468864468864,810.2930402930403,774.0293040293041,842.9304029304029,949.7069597069598,-0.375610,0.010193,0.917969,0.186920,-1.308441,0.605621,364834139.194139,287739047.619048,2004175.824176,79.058975,1,1,1,1,1,96.000000
2025-09-25 15:37:14.764,0.08818810704867852,0,0.3151509941745694,0.2873019472548037,0.7797549496647128,0,0.1165110328398387,0.4234097886380939,1.776909185261,0,0.9012259204247917,1.714080667293584,1.995295771749248,0,0.9054804208652152,1.545065496989792,1.806086995334945,0,0.5513479436938372,1.339963653325636,742.6007326007326,876.7765567765568,813.1135531135532,756.7032967032967,793.7728937728938,1166.080586080586,-0.375610,0.010193,0.917969,0.186920,-1.308441,0.605621,364834139.194139,287739047.619048,2004175.824176,79.058975,1,1,1,1,1,96.000000
2025-09-25 15:37:14.764,0.08818810704867852,0,0.3151509941745694,0.2873019472548037,0.7797549496647128,0,0.1165110328398387,0.4234097886380939,1.776909185261,0,0.9012259204247917,1.714080667293584,1.995295771749248,0,0.9054804208652152,1.545065496989792,1.806086995334945,0,0.5513479436938372,1.339963653325636,824.3956043956044,834.8717948717949,820.7692307692308,823.1868131868132,843.3333333333334,1242.234432234432,-0.375610,0.010193,0.917969,0.186920,-1.308441,0.605621,364834139.194139,287739047.619048,2004175.824176,79.058975,1,1,1,1,1,96.000000
2025-09-25 15:37:14.765,0.08818810704867852,0,0.3151509941745694,0.2873019472548037,0.7797549496647128,0,0.1165110328398387,0.4234097886380939,1.776909185261,0,0.9012259204247917,1.714080667293584,1.995295771749248,0,0.9054804208652152,1.545065496989792,1.806086995334945,0,0.5513479436938372,1.339963653325636,851.7948717948718,655.5677655677656,815.934065934066,855.0183150183151,949.7069597069598,1037.142857142857,-0.375610,0.010193,0.917969,0.186920,-1.308441,0.605621,364834139.194139,287739047.619048,2004175.824176,79.058975,1,1,1,1,1,96.000000
2025-09-25 15:37:14.765,0.08818810704867852,0,0.3151509941745694,0.2873019472548037,0.7797549496647128,0,0.1165110328398387,0.4234097886380939,1.776909185261,0,0.9012259204247917,1.714080667293584,1.995295771749248,0,0.9054804208652152,1.545065496989792,1.806086995334945,0,0.5513479436938372,1.339963653325636,730.5128205128206,641.4652014652015,804.2490842490843,773.6263736263736,952.5274725274726,780.4761904761905,-0.375610,0.010193,0.917969,0.186920,-1.308441,0.605621,364834139.194139,287739047.619048,2004175.824176,79.058975,1,1,1,1,1,96.000000
2025-09-25 15:37:14.765,0.08818810704867852,0,0.3151509941745694,0.2873019472548037,0.7797549496647128,0,0.1165110328398387,0.4234097886380939,1.776909185261,0,0.9012259204247917,1.714080667293584,1.995295771749248,0,0.9054804208652152,1.545065496989792,1.806086995334945,0,0.5513479436938372,1.339963653325636,718.4249084249085,790.1465201465202,803.8461538461539,737.3626373626374,879.1941391941392,730.5128205128206,-0.375610,0.010193,0.917969,0.186920,-1.308441,0.605621,364834139.194139,287739047.619048,2004175.824176,79.058975,1,1,1,1,1,96.000000
2025-09-25 15:37:14.765,0.08818810704867852,0,0.3151509941745694,0.2873019472548037,0.7797549496647128,0,0.1165110328398387,0.4234097886380939,1.776909185261,0,0.9012259204247917,1.714080667293584,1.995295771749248,0,0.9054804208652152,1.545065496989792,1.806086995334945,0,0.5513479436938372,1.339963653325636,785.3113553113553,791.3553113553114,811.5018315018315,797.8021978021978,829.2307692307693,670.0732600732601,-0.375610,0.010193,0.917969,0.186920,-1.308441,0.605621,364834139.194139,287739047.619048,2004175.824176,79.058975,1,1,1,1,1,96.000000
2025-09-25 15:37:14.765,0.08818810704867852,0,0.3151509941745694,0.2873019472548037,0.7797549496647128,0,0.1165110328398387,0.4234097886380939,1.776909185261,0,0.9012259204247917,1.714080667293584,1.995295771749248,0,0.9054804208652152,1.545065496989792,1.806086995334945,0,0.5513479436938372,1.339963653325636,797.3992673992674,782.4908424908425,813.1135531135532,817.1428571428571,820.3663003663004,660.8058608058608,-0.375427,0.008911,0.912537,0.366364,-0.994415,-0.029907,364994505.494505,287834945.054945,2063809.523810,79.058975,1,1,1,1,1,96.000000
2025-09-25 15:37:14.765,0.08818810704867852,0,0.3151509941745694,0.2873019472548037,0.7797549496647128,0,0.1165110328398387,0.4234097886380939,1.776909185261,0,0.9012259204247917,1.714080667293584,1.995295771749248,0,0.9054804208652152,1.545065496989792,1.806086995334945,0,0.5513479436938372,1.339963653325636,819.1575091575091,903.3699633699634,800.2197802197802,794.1758241758242,862.6739926739926,893.2967032967033,-0.375427,0.008911,0.912537,0.366364,-0.994415,-0.029907,364994505.494505,287834945.054945,2063809.523810,79.058975,1,1,1,1,1,96.000000
2025-09-25 15:37:14.765,0.08818810704867852,0,0.3151509941745694,0.2873019472548037,0.7797549496647128,0,0.1165110328398387,0.4234097886380939,1.776909185261,0,0.9012259204247917,1.714080667293584,1.995295771749248,0,0.9054804208652152,1.545065496989792,1.806086995334945,0,0.5513479436938372,1.339963653325636,851.7948717948718,744.2124542124542,799.4139194139194,836.0805860805862,901.3553113553114,863.4798534798535,-0.375427,0.008911,0.912537,0.366364,-0.994415,-0.029907,364994505.494505,287834945.054945,2063809.523810,79.058975,1,1,1,1,1,96.000000
2025-09-25 15:37:14.765,0.08818810704867852,0,0.3151509941745694,0.2873019472548037,0.7797549496647128,0,0.1165110328398387,0.4234097886380939,1.776909185261,0,0.9012259204247917,1.714080667293584,1.995295771749248,0,0.9054804208652152,1.545065496989792,1.806086995334945,0,0.5513479436938372,1.339963653325636,801.8315018315019,672.0879120879121,807.0695970695971,820.3663003663004,839.3040293040293,664.0293040293041,-0.375427,0.008911,0.912537,0.366364,-0.994415,-0.029907,364994505.494505,287834945.054945,2063809.523810,79.058975,1,1,1,1,1,96.000000
2025-09-25 15:37:14.765,0.08818810704867852,0,0.3151509941745694,0.2873019472548037,0.7797549496647128,0,0.1165110328398387,0.4234097886380939,1.776909185261,0,0.9012259204247917,1.714080667293584,1.995295771749248,0,0.9054804208652152,1.545065496989792,1.806086995334945,0,0.5513479436938372,1.339963653325636,796.1904761904763,850.989010989011,811.5018315018315,784.9084249084249,813.919413919414,733.7362637362637,-0.375427,0.008911,0.912537,0.366364,-0.994415,-0.029907,364994505.494505,287834945.054945,2063809.523810,79.058975,1,1,1,1,1,96.000000
2025-09-25 15:37:14.765,0.0917743982727057,0,0.3555449364789773,0.2912084506225057,0.7427478414007471,0,0.1333144482394884,0.4024828414600428,1.716480670410564,0,0.8850598608443399,1.671161146817026,2.001372399608355,0,0.899393236864288,1.554599616996781,1.809988699173367,0,0.5484555581948457,1.347447168915788,847.3626373626374,945.2747252747253,813.919413919414,819.5604395604396,842.9304029304029,1025.457875457875,-0.375427,0.008911,0.912537,0.366364,-0.994415,-0.029907,364994505.494505,287834945.054945,2063809.523810,79.058975,1,1,1,1,1,96.000000
2025-09-25 15:37:14.766,0.0917743982727057,0,0.3555449364789773,0.2912084506225057,0.7427478414007471,0,0.1333144482394884,0.4024828414600428,1.716480670410564,0,0.8850598608443399,1.671161146817026,2.001372399608355,0,0.899393236864288,1.554599616996781,1.809988699173367,0,0.5484555581948457,1.347447168915788,906.996336996337,905.7875457875458,815.934065934066,889.6703296703297,883.6263736263736,1290.586080586081,-0.375427,0.008911,0.912537,0.366364,-0.994415,-0.029907,364994505.494505,287834945.054945,2063809.523810,79.058975,1,1,1,1,1,96.000000
2025-09-25 15:37:14.766,0.0917743982727057,0,0.3555449364789773,0.2912084506225057,0.7427478414007471,0,0.1333144482394884,0.4024828414600428,1.716480670410564,0,0.8850598608443399,1.671161146817026,2.001372399608355,0,0.899393236864288,1.554599616996781,1.809988699173367,0,0.5484555581948457,1.347447168915788,871.5384615384615,614.8717948717949,825.2014652014652,891.6849816849817,866.3003663003664,1057.692307692308,-0.375427,0.008911,0.912537,0.366364,-0.994415,-0.029907,364994505.494505,287834945.054945,2063809.523810,79.058975,1,1,1,1,1,96.000000
2025-09-25 15:37:14.766,0.0917743982727057,0,0.3555449364789773,0.2912084506225057,0.7427478414007471,0,0.1333144482394884,0.4024828414600428,1.716480670410564,0,0.8850598608443399,1.671161146817026,2.001372399608355,0,0.899393236864288,1.554599616996781,1.809988699173367,0,0.5484555581948457,1.347447168915788,780.4761904761905,649.1208791208792,825.2014652014652,820.3663003663004,823.5897435897436,755.4945054945055,-0.375427,0.008911,0.912537,0.366364,-0.994415,-0.029907,364994505.494505,287834945.054945,2063809.523810,79.058975,1,1,1,1,1,96.000000
2025-09-25 15:37:14.766,0.0917743982727057,0,0.3555449364789773,0.2912084506225057,0.7427478414007471,0,0.1333144482394884,0.4024828414600428,1.716480670410564,0,0.8850598608443399,1.671161146817026,2.001372399608355,0,0.899393236864288,1.554599616996781,1.809988699173367,0,0.5484555581948457,1.347447168915788,737.7655677655678,760.7326007326008,814.7252747252747,776.4468864468864,767.5824175824176,651.1355311355312,-0.375427,0.008911,0.912537,0.366364,-0.994415,-0.029907,364994505.494505,287834945.054945,2063809.523810,79.058975,1,1,1,1,1,96.000000
2025-09-25 15:37:14.766,0.0917743982727057,0,0.3555449364789773,0.2912084506225057,0.7427478414007471,0,0.1333144482394884,0.4024828414600428,1.716480670410564,0,0.8850598608443399,1.671161146817026,2.001372399608355,0,0.899393236864288,1.554599616996781,1.809988699173367,0,0.5484555581948457,1.347447168915788,726.8864468864469,729.7069597069598,807.4725274725275,786.1172161172161,730.1098901098901,507.6923076923077,-0.375427,0.008911,0.912537,0.366364,-0.994415,-0.029907,364994505.494505,287834945.054945,2063809.523810,79.058975,1,1,1,1,1,96.000000
2025-09-25 15:37:14.766,0.0917743982727057,0,0.3555449364789773,0.2912084506225057,0.7427478414007471,0,0.1333144482394884,0.4024828414600428,1.716480670410564,0,0.8850598608443399,1.671161146817026,2.001372399608355,0,0.899393236864288,1.554599616996781,1.809988699173367,0,0.5484555581948457,1.347447168915788,800.2197802197802,879.5970695970697,799.4139194139194,818.3516483516484,773.2234432234433,563.6996336996338,-0.375427,0.008911,0.912537,0.366364,-0.994415,-0.029907,364994505.494505,287834945.054945,2063809.523810,79.058975,1,1,1,1,1,96.000000
2025-09-25 15:37:14.766,0.0917743982727057,0,0.3555449364789773,0.2912084506225057,0.7427478414007471,0,0.1333144482394884,0.4024828414600428,1.716480670410564,0,0.8850598608443399,1.671161146817026,2.001372399608355,0,0.899393236864288,1.554599616996781,1.809988699173367,0,0.5484555581948457,1.347447168915788,807.8754578754579,884.8351648351648,798.6080586080586,784.9084249084249,834.8717948717949,763.5531135531136,-0.375427,0.008911,0.912537,0.366364,-0.994415,-0.029907,364994505.494505,287834945.054945,2063809.523810,79.058975,1,1,1,1,1,96.000000
2025-09-25 15:37:14.766,0.0917743982727057,0,0.3555449364789773,0.2912084506225057,0.7427478414007471,0,0.1333144482394884,0.4024828414600428,1.716480670410564,0,0.8850598608443399,1.671161146817026,2.001372399608355,0,0.899393236864288,1.554599616996781,1.809988699173367,0,0.5484555581948457,1.347447168915788,734.1391941391942,721.6483516483516,801.8315018315019,758.7179487179487,849.7802197802198,721.6483516483516,-0.375427,0.008911,0.912537,0.366364,-0.994415,-0.029907,364994505.494505,287834945.054945,2063809.523810,79.058975,1,1,1,1,1,96.000000
2025-09-25 15:37:14.767,0.0917743982727057,0,0.3555449364789773,0.2912084506225057,0.7427478414007471,0,0.1333144482394884,0.4024828414600428,1.716480670410564,0,0.8850598608443399,1.671161146817026,2.001372399608355,0,0.899393236864288,1.554599616996781,1.809988699173367,0,0.5484555581948457,1.347447168915788,801.8315018315019,889.2673992673992,811.9047619047619,809.0842490842491,747.8388278388279,764.3589743589744,-0.375427,0.008911,0.912537,0.366364,-0.994415,-0.029907,364994505.494505,287834945.054945,2063809.523810,79.058975,1,1,1,1,1,96.000000
2025-09-25 15:37:14.767,0.0917743982727057,0,0.3555449364789773,0.2912084506225057,0.7427478414007471,0,0.1333144482394884,0.4024828414600428,1.716480670410564,0,0.8850598608443399,1.671161146817026,2.001372399608355,0,0.899393236864288,1.554599616996781,1.809988699173367,0,0.5484555581948457,1.347447168915788,931.978021978022,1001.282051282051,818.7545787545788,879.5970695970697,749.4505494505495,1066.556776556777,-0.375427,0.008911,0.912537,0.366364,-0.994415,-0.029907,364994505.494505,287834945.054945,2063809.523810,79.058975,1,1,1,1,1,96.000000
2025-09-25 15:37:14.767,0.0917743982727057,0,0.3555449364789773,0.2912084506225057,0.7427478414007471,0,0.1333144482394884,0.4024828414600428,1.716480670410564,0,0.8850598608443399,1.671161146817026,2.001372399608355,0,0.899393236864288,1.554599616996781,1.809988699173367,0,0.5484555581948457,1.347447168915788,837.2893772893773,682.1611721611722,809.8901098901099,842.1245421245421,865.0915750915751,1033.516483516484,-0.375427,0.008911,0.912537,0.366364,-0.994415,-0.029907,364994505.494505,287834945.054945,2063809.523810,79.058975,1,1,1,1,1,96.000000
2025-09-25 15:37:14.767,0.0917743982727057,0,0.3555449364789773,0.2912084506225057,0.7427478414007471,0,0.1333144482394884,0.4024828414600428,1.716480670410564,0,0.8850598608443399,1.671161146817026,2.001372399608355,0,0.899393236864288,1.554599616996781,1.809988699173367,0,0.5484555581948457,1.347447168915788,718.021978021978,726.8864468864469,803.4432234432235,765.5677655677656,763.1501831501831,913.4432234432235,-0.375427,0.008911,0.912537,0.366364,-0.994415,-0.029907,364994505.494505,287834945.054945,2063809.523810,79.058975,1,1,1,1,1,96.000000
2025-09-25 15:37:14.767,0.0917743982727057,0,0.3555449364789773,0.2912084506225057,0.7427478414007471,0,0.1333144482394884,0.4024828414600428,1.716480670410564,0,0.8850598608443399,1.671161146817026,2.001372399608355,0,0.899393236864288,1.554599616996781,1.809988699173367,0,0.5484555581948457,1.347447168915788,765.1648351648352,853.0036630036631,803.4432234432235,784.5054945054945,709.1575091575091,999.2673992673992,-0.375427,0.008911,0.912537,0.366364,-0.994415,-0.029907,364994505.494505,287834945.054945,2063809.523810,79.058975,1,1,1,1,1,96.000000
2025-09-25 15:37:14.767,0.0917743982727057,0,0.3555449364789773,0.2912084506225057,0.7427478414007471,0,0.1333144482394884,0.4024828414600428,1.716480670410564,0,0.8850598608443399,1.671161146817026,2.001372399608355,0,0.899393236864288,1.554599616996781,1.809988699173367,0,0.5484555581948457,1.347447168915788,819.1575091575091,743.0036630036631,800.6227106227107,834.4688644688645,878.7912087912089,888.4615384615385,-0.375427,0.008911,0.912537,0.366364,-0.994415,-0.029907,364994505.494505,287834945.054945,2063809.523810,79.058975,1,1,1,1,1,96.000000
2025-09-25 15:37:14.767,0.0917743982727057,0,0.3555449364789773,0.2912084506225057,0.7427478414007471,0,0.1333144482394884,0.4024828414600428,1.716480670410564,0,0.8850598608443399,1.671161146817026,2.001372399608355,0,0.899393236864288,1.554599616996781,1.809988699173367,0,0.5484555581948457,1.347447168915788,778.8644688644689,661.6117216117216,803.4432234432235,807.0695970695971,875.1648351648352,666.8498168498169,-0.375427,0.008911,0.912537,0.366364,-0.994415,-0.029907,364994505.494505,287834945.054945,2063809.523810,79.058975,1,1,1,1,1,96.000000
2025-09-25 15:37:14.767,0.0917743982727057,0,0.3555449364789773,0.2912084506225057,0.7427478414007471,0,0.1333144482394884,0.4024828414600428,1.716480670410564,0,0.8850598608443399,1.671161146817026,2.001372399608355,0,0.899393236864288,1.554599616996781,1.809988699173367,0,0.5484555581948457,1.347447168915788,745.0183150183151,739.7802197802198,813.919413919414,759.5238095238095,746.6300366300367,581.025641025641,-0.375427,0.008911,0.912537,0.366364,-0.994415,-0.029907,364994505.494505,287834945.054945,2063809.523810,79.058975,1,1,1,1,1,96.000000
2025-09-25 15:37:14.767,0.0917743982727057,0,0.3555449364789773,0.2912084506225057,0.7427478414007471,0,0.1333144482394884,0.4024828414600428,1.716480670410564,0,0.8850598608443399,1.671161146817026,2.001372399608355,0,0.899393236864288,1.554599616996781,1.809988699173367,0,0.5484555581948457,1.347447168915788,794.981684981685,799.0109890109891,815.5311355311355,785.7142857142858,804.2490842490843,559.2673992673992,-0.375427,0.008911,0.912537,0.366364,-0.994415,-0.029907,364994505.494505,287834945.054945,2063809.523810,79.058975,1,1,1,1,1,96.000000
2025-09-25 15:37:14.767,0.0917743982727057,0,0.3555449364789773,0.2912084506225057,0.7427478414007471,0,0.1333144482394884,0.4024828414600428,1.716480670410564,0,0.8850598608443399,1.671161146817026,2.001372399608355,0,0.899393236864288,1.554599616996781,1.809988699173367,0,0.5484555581948457,1.347447168915788,859.8534798534798,863.4798534798535,813.1135531135532,841.3186813186813,848.1684981684982,613.6630036630037,-0.375427,0.008911,0.912537,0.366364,-0.994415,-0.029907,364994505.494505,287834945.054945,2063809.523810,79.058975,1,1,1,1,1,96.000000
2025-09-25 15:37:14.789,0.0917743982727057,0,0.3555449364789773,0.2912084506225057,0.7427478414007471,0,0.1333144482394884,0.4024828414600428,1.716480670410564,0,0.8850598608443399,1.671161146817026,2.001372399608355,0,0.899393236864288,1.554599616996781,1.809988699173367,0,0.5484555581948457,1.347447168915788,867.9120879120879,850.989010989011,808.2783882783883,851.7948717948718,836.0805860805862,715.2014652014652,-0.372559,0.005981,0.911682,0.246735,-2.026215,0.082245,364797069.597070,287822857.142857,2067032.967033,79.058975,1,1,1,1,1,96.000000
2025-09-25 15:37:14.789,0.0917743982727057,0,0.3555449364789773,0.2912084506225057,0.7427478414007471,0,0.1333144482394884,0.4024828414600428,1.716480670410564,0,0.8850598608443399,1.671161146817026,2.001372399608355,0,0.899393236864288,1.554599616996781,1.809988699173367,0,0.5484555581948457,1.347447168915788,787.3260073260074,768.7912087912088,805.0549450549451,800.2197802197802,867.1062271062272,741.7948717948718,-0.372559,0.005981,0.911682,0.246735,-2.026215,0.082245,364797069.597070,287822857.142857,2067032.967033,79.058975,1,1,1,1,1,96.000000
2025-09-25 15:37:14.789,0.0917743982727057,0,0.3555449364789773,0.2912084506225057,0.7427478414007471,0,0.1333144482394884,0.4024828414600428,1.716480670410564,0,0.8850598608443399,1.671161146817026,2.001372399608355,0,0.899393236864288,1.554599616996781,1.809988699173367,0,0.5484555581948457,1.347447168915788,778.0586080586081,808.6813186813187,807.0695970695971,780.4761904761905,892.893772893773,790.952380952381,-0.372559,0.005981,0.911682,0.246735,-2.026215,0.082245,364797069.597070,287822857.142857,2067032.967033,79.058975,1,1,1,1,1,96.000000
2025-09-25 15:37:14.789,0.0917743982727057,0,0.3555449364789773,0.2912084506225057,0.7427478414007471,0,0.1333144482394884,0.4024828414600428,1.716480670410564,0,0.8850598608443399,1.671161146817026,2.001372399608355,0,0.899393236864288,1.554599616996781,1.809988699173367,0,0.5484555581948457,1.347447168915788,819.5604395604396,805.8608058608058,802.2344322344322,815.1282051282052,952.1245421245421,812.3076923076924,-0.372559,0.005981,0.911682,0.246735,-2.026215,0.082245,364797069.597070,287822857.142857,2067032.967033,79.058975,1,1,1,1,1,96.000000
2025-09-25 15:37:14.789,0.0917743982727057,0,0.3555449364789773,0.2912084506225057,0.7427478414007471,0,0.1333144482394884,0.4024828414600428,1.716480670410564,0,0.8850598608443399,1.671161146817026,2.001372399608355,0,0.899393236864288,1.554599616996781,1.809988699173367,0,0.5484555581948457,1.347447168915788,855.8241758241759,840.9157509157509,799.8168498168499,858.6446886446887,924.3223443223443,856.2271062271062,-0.372559,0.005981,0.911682,0.246735,-2.026215,0.082245,364797069.597070,287822857.142857,2067032.967033,79.058975,1,1,1,1,1,96.000000
2025-09-25 15:37:14.789,0.0917743982727057,0,0.3555449364789773,0.2912084506225057,0.7427478414007471,0,0.1333144482394884,0.4024828414600428,1.716480670410564,0,0.8850598608443399,1.671161146817026,2.001372399608355,0,0.899393236864288,1.554599616996781,1.809988699173367,0,0.5484555581948457,1.347447168915788,852.1978021978023,865.0915750915751,803.8461538461539,831.6483516483516,855.0183150183151,1035.531135531136,-0.372559,0.005981,0.911682,0.246735,-2.026215,0.082245,364797069.597070,287822857.142857,2067032.967033,79.058975,1,1,1,1,1,96.000000
2025-09-25 15:37:14.789,0.0917743982727057,0,0.3555449364789773,0.2912084506225057,0.7427478414007471,0,0.1333144482394884,0.4024828414600428,1.716480670410564,0,0.8850598608443399,1.671161146817026,2.001372399608355,0,0.899393236864288,1.554599616996781,1.809988699173367,0,0.5484555581948457,1.347447168915788,795.3846153846154,807.8754578754579,802.6373626373627,789.3406593406594,851.3919413919414,1123.772893772894,-0.372559,0.005981,0.911682,0.246735,-2.026215,0.082245,364797069.597070,287822857.142857,2067032.967033,79.058975,1,1,1,1,1,96.000000
2025-09-25 15:37:14.790,,,,,,,,,,,,,,,,,,,,,,,,,,,,,,,,,,,,,,,,,,,/muse/elements/jaw_clench
2025-09-25 15:37:14.789,0.0877163021209859,0,0.3932880810210052,0.2982684661003479,0.7345861675375447,0,0.1462995477874514,0.3741192915955173,1.607658927019405,0,0.8520515728058081,1.6404523092977,2.016800466865933,0,0.8848314803939338,1.56830498614367,1.804970654714434,0,0.5507078239957091,1.363561370966216,813.5164835164835,846.1538461538462,797.8021978021978,812.3076923076924,925.5311355311355,1178.571428571429,-0.372559,0.005981,0.911682,0.246735,-2.026215,0.082245,364797069.597070,287822857.142857,2067032.967033,79.058975,1,1,1,1,1,96.000000
2025-09-25 15:37:14.790,0.0877163021209859,0,0.3932880810210052,0.2982684661003479,0.7345861675375447,0,0.1462995477874514,0.3741192915955173,1.607658927019405,0,0.8520515728058081,1.6404523092977,2.016800466865933,0,0.8848314803939338,1.56830498614367,1.804970654714434,0,0.5507078239957091,1.363561370966216,858.6446886446887,666.4468864468864,802.6373626373627,851.7948717948718,1017.399267399267,979.92673992674,-0.372559,0.005981,0.911682,0.246735,-2.026215,0.082245,364797069.597070,287822857.142857,2067032.967033,79.058975,1,1,1,1,1,96.000000
2025-09-25 15:37:14.790,0.0877163021209859,0,0.3932880810210052,0.2982684661003479,0.7345861675375447,0,0.1462995477874514,0.3741192915955173,1.607658927019405,0,0.8520515728058081,1.6404523092977,2.016800466865933,0,0.8848314803939338,1.56830498614367,1.804970654714434,0,0.5507078239957091,1.363561370966216,753.4798534798535,607.6190476190476,803.8461538461539,788.9377289377289,831.6483516483516,621.7216117216118,-0.372559,0.005981,0.911682,0.246735,-2.026215,0.082245,364797069.597070,287822857.142857,2067032.967033,79.058975,1,1,1,1,1,96.000000
2025-09-25 15:37:14.790,0.0877163021209859,0,0.3932880810210052,0.2982684661003479,0.7345861675375447,0,0.1462995477874514,0.3741192915955173,1.607658927019405,0,0.8520515728058081,1.6404523092977,2.016800466865933,0,0.8848314803939338,1.56830498614367,1.804970654714434,0,0.5507078239957091,1.363561370966216,716.8131868131868,815.934065934066,805.4578754578755,737.7655677655678,757.9120879120879,594.7252747252747,-0.372559,0.005981,0.911682,0.246735,-2.026215,0.082245,364797069.597070,287822857.142857,2067032.967033,79.058975,1,1,1,1,1,96.000000
2025-09-25 15:37:14.790,0.0877163021209859,0,0.3932880810210052,0.2982684661003479,0.7345861675375447,0,0.1462995477874514,0.3741192915955173,1.607658927019405,0,0.8520515728058081,1.6404523092977,2.016800466865933,0,0.8848314803939338,1.56830498614367,1.804970654714434,0,0.5507078239957091,1.363561370966216,796.5934065934066,850.989010989011,806.6666666666667,770.4029304029305,843.7362637362637,695.8608058608058,-0.372559,0.005981,0.911682,0.246735,-2.026215,0.082245,364797069.597070,287822857.142857,2067032.967033,79.058975,1,1,1,1,1,96.000000
2025-09-25 15:37:14.790,0.0877163021209859,0,0.3932880810210052,0.2982684661003479,0.7345861675375447,0,0.1462995477874514,0.3741192915955173,1.607658927019405,0,0.8520515728058081,1.6404523092977,2.016800466865933,0,0.8848314803939338,1.56830498614367,1.804970654714434,0,0.5507078239957091,1.363561370966216,846.959706959707,843.3333333333334,809.0842490842491,836.4835164835165,810.6959706959707,697.4725274725275,-0.368835,0.007324,0.926331,0.239258,-1.764526,0.261688,364797069.597070,287822857.142857,2067032.967033,79.058975,1,1,1,1,1,96.000000
2025-09-25 15:37:14.790,0.0877163021209859,0,0.3932880810210052,0.2982684661003479,0.7345861675375447,0,0.1462995477874514,0.3741192915955173,1.607658927019405,0,0.8520515728058081,1.6404523092977,2.016800466865933,0,0.8848314803939338,1.56830498614367,1.804970654714434,0,0.5507078239957091,1.363561370966216,864.2857142857143,819.5604395604396,814.7252747252747,853.4065934065934,830.0366300366301,718.8278388278388,-0.368835,0.007324,0.926331,0.239258,-1.764526,0.261688,364797069.597070,287822857.142857,2067032.967033,79.058975,1,1,1,1,1,96.000000
2025-09-25 15:37:14.790,0.0877163021209859,0,0.3932880810210052,0.2982684661003479,0.7345861675375447,0,0.1462995477874514,0.3741192915955173,1.607658927019405,0,0.8520515728058081,1.6404523092977,2.016800466865933,0,0.8848314803939338,1.56830498614367,1.804970654714434,0,0.5507078239957091,1.363561370966216,774.4322344322345,803.040293040293,810.6959706959707,778.8644688644689,874.7619047619048,753.4798534798535,-0.368835,0.007324,0.926331,0.239258,-1.764526,0.261688,364797069.597070,287822857.142857,2067032.967033,79.058975,1,1,1,1,1,96.000000
2025-09-25 15:37:14.790,0.0877163021209859,0,0.3932880810210052,0.2982684661003479,0.7345861675375447,0,0.1462995477874514,0.3741192915955173,1.607658927019405,0,0.8520515728058081,1.6404523092977,2.016800466865933,0,0.8848314803939338,1.56830498614367,1.804970654714434,0,0.5507078239957091,1.363561370966216,766.7765567765568,893.2967032967033,804.2490842490843,763.5531135531136,848.5714285714286,958.5714285714286,-0.368835,0.007324,0.926331,0.239258,-1.764526,0.261688,364797069.597070,287822857.142857,2067032.967033,79.058975,1,1,1,1,1,96.000000
2025-09-25 15:37:14.791,0.0877163021209859,0,0.3932880810210052,0.2982684661003479,0.7345861675375447,0,0.1462995477874514,0.3741192915955173,1.607658927019405,0,0.8520515728058081,1.6404523092977,2.016800466865933,0,0.8848314803939338,1.56830498614367,1.804970654714434,0,0.5507078239957091,1.363561370966216,829.2307692307693,788.1318681318681,803.040293040293,823.992673992674,875.1648351648352,992.8205128205128,-0.368835,0.007324,0.926331,0.239258,-1.764526,0.261688,364797069.597070,287822857.142857,2067032.967033,79.058975,1,1,1,1,1,96.000000
2025-09-25 15:37:14.791,0.0877163021209859,0,0.3932880810210052,0.2982684661003479,0.7345861675375447,0,0.1462995477874514,0.3741192915955173,1.607658927019405,0,0.8520515728058081,1.6404523092977,2.016800466865933,0,0.8848314803939338,1.56830498614367,1.804970654714434,0,0.5507078239957091,1.363561370966216,838.901098901099,821.5750915750916,803.040293040293,837.2893772893773,824.3956043956044,968.6446886446887,-0.368835,0.007324,0.926331,0.239258,-1.764526,0.261688,364797069.597070,287822857.142857,2067032.967033,79.058975,1,1,1,1,1,96.000000
2025-09-25 15:37:14.791,0.0877163021209859,0,0.3932880810210052,0.2982684661003479,0.7345861675375447,0,0.1462995477874514,0.3741192915955173,1.607658927019405,0,0.8520515728058081,1.6404523092977,2.016800466865933,0,0.8848314803939338,1.56830498614367,1.804970654714434,0,0.5507078239957091,1.363561370966216,814.7252747252747,823.992673992674,799.8168498168499,788.1318681318681,847.3626373626374,1136.263736263736,-0.368835,0.007324,0.926331,0.239258,-1.764526,0.261688,364797069.597070,287822857.142857,2067032.967033,79.058975,1,1,1,1,1,96.000000
2025-09-25 15:37:14.791,0.0877163021209859,0,0.3932880810210052,0.2982684661003479,0.7345861675375447,0,0.1462995477874514,0.3741192915955173,1.607658927019405,0,0.8520515728058081,1.6404523092977,2.016800466865933,0,0.8848314803939338,1.56830498614367,1.804970654714434,0,0.5507078239957091,1.363561370966216,756.3003663003664,636.2271062271062,807.4725274725275,772.4175824175825,901.3553113553114,961.3919413919414,-0.368835,0.007324,0.926331,0.239258,-1.764526,0.261688,364797069.597070,287822857.142857,2067032.967033,79.058975,1,1,1,1,1,96.000000
2025-09-25 15:37:14.791,0.0877163021209859,0,0.3932880810210052,0.2982684661003479,0.7345861675375447,0,0.1462995477874514,0.3741192915955173,1.607658927019405,0,0.8520515728058081,1.6404523092977,2.016800466865933,0,0.8848314803939338,1.56830498614367,1.804970654714434,0,0.5507078239957091,1.363561370966216,766.3736263736264,666.4468864468864,815.934065934066,803.040293040293,822.7838827838829,622.5274725274726,-0.368835,0.007324,0.926331,0.239258,-1.764526,0.261688,364797069.597070,287822857.142857,2067032.967033,79.058975,1,1,1,1,1,96.000000
2025-09-25 15:37:14.791,0.0877163021209859,0,0.3932880810210052,0.2982684661003479,0.7345861675375447,0,0.1462995477874514,0.3741192915955173,1.607658927019405,0,0.8520515728058081,1.6404523092977,2.016800466865933,0,0.8848314803939338,1.56830498614367,1.804970654714434,0,0.5507078239957091,1.363561370966216,859.4505494505495,936.007326007326,813.919413919414,840.5128205128206,766.3736263736264,761.1355311355312,-0.368835,0.007324,0.926331,0.239258,-1.764526,0.261688,364797069.597070,287822857.142857,2067032.967033,79.058975,1,1,1,1,1,96.000000
2025-09-25 15:37:14.791,0.0877163021209859,0,0.3932880810210052,0.2982684661003479,0.7345861675375447,0,0.1462995477874514,0.3741192915955173,1.607658927019405,0,0.8520515728058081,1.6404523092977,2.016800466865933,0,0.8848314803939338,1.56830498614367,1.804970654714434,0,0.5507078239957091,1.363561370966216,841.7216117216118,842.9304029304029,814.7252747252747,815.934065934066,886.8498168498169,933.5897435897436,-0.368835,0.007324,0.926331,0.239258,-1.764526,0.261688,364797069.597070,287822857.142857,2067032.967033,79.058975,1,1,1,1,1,96.000000
2025-09-25 15:37:14.791,0.0877163021209859,0,0.3932880810210052,0.2982684661003479,0.7345861675375447,0,0.1462995477874514,0.3741192915955173,1.607658927019405,0,0.8520515728058081,1.6404523092977,2.016800466865933,0,0.8848314803939338,1.56830498614367,1.804970654714434,0,0.5507078239957091,1.363561370966216,733.3333333333334,672.0879120879121,809.8901098901099,763.956043956044,921.9047619047619,774.0293040293041,-0.368835,0.007324,0.926331,0.239258,-1.764526,0.261688,364797069.597070,287822857.142857,2067032.967033,79.058975,1,1,1,1,1,96.000000
2025-09-25 15:37:14.791,0.0877163021209859,0,0.3932880810210052,0.2982684661003479,0.7345861675375447,0,0.1462995477874514,0.3741192915955173,1.607658927019405,0,0.8520515728058081,1.6404523092977,2.016800466865933,0,0.8848314803939338,1.56830498614367,1.804970654714434,0,0.5507078239957091,1.363561370966216,753.0769230769231,789.3406593406594,807.4725274725275,787.7289377289378,857.4358974358975,698.6813186813187,-0.371338,0.006409,0.919739,0.710297,0.321503,-0.186920,364725347.985348,287645567.765568,2055750.915751,79.058975,1,1,1,1,1,96.000000
2025-09-25 15:37:14.792,0.0877163021209859,0,0.3932880810210052,0.2982684661003479,0.7345861675375447,0,0.1462995477874514,0.3741192915955173,1.607658927019405,0,0.8520515728058081,1.6404523092977,2.016800466865933,0,0.8848314803939338,1.56830498614367,1.804970654714434,0,0.5507078239957091,1.363561370966216,858.2417582417582,836.4835164835165,808.2783882783883,847.3626373626374,861.4652014652015,724.4688644688645,-0.371338,0.006409,0.919739,0.710297,0.321503,-0.186920,364725347.985348,287645567.765568,2055750.915751,79.058975,1,1,1,1,1,96.000000
2025-09-25 15:37:14.792,0.0877163021209859,0,0.3932880810210052,0.2982684661003479,0.7345861675375447,0,0.1462995477874514,0.3741192915955173,1.607658927019405,0,0.8520515728058081,1.6404523092977,2.016800466865933,0,0.8848314803939338,1.56830498614367,1.804970654714434,0,0.5507078239957091,1.363561370966216,813.919413919414,692.6373626373627,804.6520146520147,817.1428571428571,876.3736263736264,642.6739926739926,-0.371338,0.006409,0.919739,0.710297,0.321503,-0.186920,364725347.985348,287645567.765568,2055750.915751,79.058975,1,1,1,1,1,96.000000
2025-09-25 15:37:14.792,0.0877163021209859,0,0.3932880810210052,0.2982684661003479,0.7345861675375447,0,0.1462995477874514,0.3741192915955173,1.607658927019405,0,0.8520515728058081,1.6404523092977,2.016800466865933,0,0.8848314803939338,1.56830498614367,1.804970654714434,0,0.5507078239957091,1.363561370966216,747.8388278388279,757.5091575091575,800.2197802197802,760.3296703296703,839.7069597069598,587.0695970695971,-0.371338,0.006409,0.919739,0.710297,0.321503,-0.186920,364725347.985348,287645567.765568,2055750.915751,79.058975,1,1,1,1,1,96.000000
2025-09-25 15:37:14.792,0.0877163021209859,0,0.3932880810210052,0.2982684661003479,0.7345861675375447,0,0.1462995477874514,0.3741192915955173,1.607658927019405,0,0.8520515728058081,1.6404523092977,2.016800466865933,0,0.8848314803939338,1.56830498614367,1.804970654714434,0,0.5507078239957091,1.363561370966216,794.1758241758242,937.6190476190476,803.040293040293,786.5201465201466,823.5897435897436,752.2710622710623,-0.371338,0.006409,0.919739,0.710297,0.321503,-0.186920,364725347.985348,287645567.765568,2055750.915751,79.058975,1,1,1,1,1,96.000000
2025-09-25 15:37:14.792,0.0877163021209859,0,0.3932880810210052,0.2982684661003479,0.7345861675375447,0,0.1462995477874514,0.3741192915955173,1.607658927019405,0,0.8520515728058081,1.6404523092977,2.016800466865933,0,0.8848314803939338,1.56830498614367,1.804970654714434,0,0.5507078239957091,1.363561370966216,903.3699633699634,997.2527472527473,813.919413919414,876.3736263736264,864.2857142857143,1049.230769230769,-0.371338,0.006409,0.919739,0.710297,0.321503,-0.186920,364725347.985348,287645567.765568,2055750.915751,79.058975,1,1,1,1,1,96.000000
2025-09-25 15:37:14.792,0.0877163021209859,0,0.3932880810210052,0.2982684661003479,0.7345861675375447,0,0.1462995477874514,0.3741192915955173,1.607658927019405,0,0.8520515728058081,1.6404523092977,2.016800466865933,0,0.8848314803939338,1.56830498614367,1.804970654714434,0,0.5507078239957091,1.363561370966216,933.992673992674,822.3809523809524,813.5164835164835,896.9230769230769,921.5018315018315,1231.758241758242,-0.371338,0.006409,0.919739,0.710297,0.321503,-0.186920,364725347.985348,287645567.765568,2055750.915751,79.058975,1,1,1,1,1,96.000000
2025-09-25 15:37:14.792,0.0877163021209859,0,0.3932880810210052,0.2982684661003479,0.7345861675375447,0,0.1462995477874514,0.3741192915955173,1.607658927019405,0,0.8520515728058081,1.6404523092977,2.016800466865933,0,0.8848314803939338,1.56830498614367,1.804970654714434,0,0.5507078239957091,1.363561370966216,782.893772893773,587.4725274725275,808.2783882783883,804.6520146520147,927.5457875457876,991.6117216117217,-0.371338,0.006409,0.919739,0.710297,0.321503,-0.186920,364725347.985348,287645567.765568,2055750.915751,79.058975,1,1,1,1,1,96.000000
2025-09-25 15:37:14.792,0.0877163021209859,0,0.3932880810210052,0.2982684661003479,0.7345861675375447,0,0.1462995477874514,0.3741192915955173,1.607658927019405,0,0.8520515728058081,1.6404523092977,2.016800466865933,0,0.8848314803939338,1.56830498614367,1.804970654714434,0,0.5507078239957091,1.363561370966216,703.919413919414,681.7582417582418,801.025641025641,754.6886446886447,859.4505494505495,680.1465201465202,-0.371338,0.006409,0.919739,0.710297,0.321503,-0.186920,364725347.985348,287645567.765568,2055750.915751,79.058975,1,1,1,1,1,96.000000
2025-09-25 15:37:14.792,0.09632941813088064,0,0.4178796421153497,0.3075188777806089,0.7518828389222809,0,0.148208833259367,0.3496389775094634,1.568795114720952,0,0.8005036288233505,1.629628607165569,2.029457162940304,0,0.8629955913370854,1.580932559835349,1.811670655672867,0,0.5532141269353422,1.382934245482754,792.1611721611722,872.7472527472528,802.2344322344322,795.3846153846154,815.1282051282052,674.1025641025641,-0.371338,0.006409,0.919739,0.710297,0.321503,-0.186920,364725347.985348,287645567.765568,2055750.915751,79.058975,1,1,1,1,1,96.000000
2025-09-25 15:37:14.793,0.09632941813088064,0,0.4178796421153497,0.3075188777806089,0.7518828389222809,0,0.148208833259367,0.3496389775094634,1.568795114720952,0,0.8005036288233505,1.629628607165569,2.029457162940304,0,0.8629955913370854,1.580932559835349,1.811670655672867,0,0.5532141269353422,1.382934245482754,858.6446886446887,824.7985347985348,817.948717948718,833.2600732600733,808.6813186813187,630.1831501831502,-0.371338,0.006409,0.919739,0.710297,0.321503,-0.186920,364725347.985348,287645567.765568,2055750.915751,79.058975,1,1,1,1,1,96.000000
2025-09-25 15:37:14.793,0.09632941813088064,0,0.4178796421153497,0.3075188777806089,0.7518828389222809,0,0.148208833259367,0.3496389775094634,1.568795114720952,0,0.8005036288233505,1.629628607165569,2.029457162940304,0,0.8629955913370854,1.580932559835349,1.811670655672867,0,0.5532141269353422,1.382934245482754,807.8754578754579,834.4688644688645,813.5164835164835,796.1904761904763,836.0805860805862,630.5860805860806,-0.371338,0.006409,0.919739,0.710297,0.321503,-0.186920,364725347.985348,287645567.765568,2055750.915751,79.058975,1,1,1,1,1,96.000000
2025-09-25 15:37:14.793,0.09632941813088064,0,0.4178796421153497,0.3075188777806089,0.7518828389222809,0,0.148208833259367,0.3496389775094634,1.568795114720952,0,0.8005036288233505,1.629628607165569,2.029457162940304,0,0.8629955913370854,1.580932559835349,1.811670655672867,0,0.5532141269353422,1.382934245482754,751.8681318681319,822.3809523809524,804.2490842490843,763.5531135531136,818.3516483516484,695.0549450549451,-0.378174,0.006348,0.909119,0.239258,0.231781,0.149536,364725347.985348,287645567.765568,2055750.915751,79.058975,1,1,1,1,1,96.000000
2025-09-25 15:37:14.793,0.09632941813088064,0,0.4178796421153497,0.3075188777806089,0.7518828389222809,0,0.148208833259367,0.3496389775094634,1.568795114720952,0,0.8005036288233505,1.629628607165569,2.029457162940304,0,0.8629955913370854,1.580932559835349,1.811670655672867,0,0.5532141269353422,1.382934245482754,825.2014652014652,944.4688644688645,809.0842490842491,808.6813186813187,749.047619047619,895.3113553113553,-0.378174,0.006348,0.909119,0.239258,0.231781,0.149536,364725347.985348,287645567.765568,2055750.915751,79.058975,1,1,1,1,1,96.000000
2025-09-25 15:37:14.793,0.09632941813088064,0,0.4178796421153497,0.3075188777806089,0.7518828389222809,0,0.148208833259367,0.3496389775094634,1.568795114720952,0,0.8005036288233505,1.629628607165569,2.029457162940304,0,0.8629955913370854,1.580932559835349,1.811670655672867,0,0.5532141269353422,1.382934245482754,877.1794871794872,817.1428571428571,807.4725274725275,863.8827838827839,817.948717948718,940.8424908424909,-0.378174,0.006348,0.909119,0.239258,0.231781,0.149536,364725347.985348,287645567.765568,2055750.915751,79.058975,1,1,1,1,1,96.000000
2025-09-25 15:37:14.793,0.09632941813088064,0,0.4178796421153497,0.3075188777806089,0.7518828389222809,0,0.148208833259367,0.3496389775094634,1.568795114720952,0,0.8005036288233505,1.629628607165569,2.029457162940304,0,0.8629955913370854,1.580932559835349,1.811670655672867,0,0.5532141269353422,1.382934245482754,779.6703296703297,709.9633699633699,800.6227106227107,799.4139194139194,778.0586080586081,862.2710622710623,-0.378174,0.006348,0.909119,0.239258,0.231781,0.149536,364725347.985348,287645567.765568,2055750.915751,79.058975,1,1,1,1,1,96.000000
2025-09-25 15:37:14.793,0.09632941813088064,0,0.4178796421153497,0.3075188777806089,0.7518828389222809,0,0.148208833259367,0.3496389775094634,1.568795114720952,0,0.8005036288233505,1.629628607165569,2.029457162940304,0,0.8629955913370854,1.580932559835349,1.811670655672867,0,0.5532141269353422,1.382934245482754,725.6776556776557,753.4798534798535,800.6227106227107,741.3919413919414,760.3296703296703,842.1245421245421,-0.378174,0.006348,0.909119,0.239258,0.231781,0.149536,364725347.985348,287645567.765568,2055750.915751,79.058975,1,1,1,1,1,96.000000
2025-09-25 15:37:14.793,0.09632941813088064,0,0.4178796421153497,0.3075188777806089,0.7518828389222809,0,0.148208833259367,0.3496389775094634,1.568795114720952,0,0.8005036288233505,1.629628607165569,2.029457162940304,0,0.8629955913370854,1.580932559835349,1.811670655672867,0,0.5532141269353422,1.382934245482754,765.1648351648352,865.0915750915751,802.2344322344322,777.2527472527473,779.6703296703297,909.8168498168499,-0.378174,0.006348,0.909119,0.239258,0.231781,0.149536,364725347.985348,287645567.765568,2055750.915751,79.058975,1,1,1,1,1,96.000000
2025-09-25 15:37:14.793,0.09632941813088064,0,0.4178796421153497,0.3075188777806089,0.7518828389222809,0,0.148208833259367,0.3496389775094634,1.568795114720952,0,0.8005036288233505,1.629628607165569,2.029457162940304,0,0.8629955913370854,1.580932559835349,1.811670655672867,0,0.5532141269353422,1.382934245482754,869.92673992674,936.4102564102565,796.996336996337,848.974358974359,849.7802197802198,1139.084249084249,-0.378174,0.006348,0.909119,0.239258,0.231781,0.149536,364725347.985348,287645567.765568,2055750.915751,79.058975,1,1,1,1,1,96.000000
2025-09-25 15:37:14.793,0.09632941813088064,0,0.4178796421153497,0.3075188777806089,0.7518828389222809,0,0.148208833259367,0.3496389775094634,1.568795114720952,0,0.8005036288233505,1.629628607165569,2.029457162940304,0,0.8629955913370854,1.580932559835349,1.811670655672867,0,0.5532141269353422,1.382934245482754,846.1538461538462,673.2967032967033,795.7875457875458,839.3040293040293,960.1831501831502,1000.879120879121,-0.378174,0.006348,0.909119,0.239258,0.231781,0.149536,364725347.985348,287645567.765568,2055750.915751,79.058975,1,1,1,1,1,96.000000
2025-09-25 15:37:14.794,0.09632941813088064,0,0.4178796421153497,0.3075188777806089,0.7518828389222809,0,0.148208833259367,0.3496389775094634,1.568795114720952,0,0.8005036288233505,1.629628607165569,2.029457162940304,0,0.8629955913370854,1.580932559835349,1.811670655672867,0,0.5532141269353422,1.382934245482754,726.8864468864469,591.5018315018315,801.8315018315019,763.1501831501831,892.893772893773,662.8205128205128,-0.378174,0.006348,0.909119,0.239258,0.231781,0.149536,364725347.985348,287645567.765568,2055750.915751,79.058975,1,1,1,1,1,96.000000
2025-09-25 15:37:14.794,0.09632941813088064,0,0.4178796421153497,0.3075188777806089,0.7518828389222809,0,0.148208833259367,0.3496389775094634,1.568795114720952,0,0.8005036288233505,1.629628607165569,2.029457162940304,0,0.8629955913370854,1.580932559835349,1.811670655672867,0,0.5532141269353422,1.382934245482754,745.0183150183151,815.5311355311355,807.4725274725275,758.3150183150184,780.8791208791209,610.0366300366301,-0.378174,0.006348,0.909119,0.239258,0.231781,0.149536,364725347.985348,287645567.765568,2055750.915751,79.058975,1,1,1,1,1,96.000000
2025-09-25 15:37:14.794,0.09632941813088064,0,0.4178796421153497,0.3075188777806089,0.7518828389222809,0,0.148208833259367,0.3496389775094634,1.568795114720952,0,0.8005036288233505,1.629628607165569,2.029457162940304,0,0.8629955913370854,1.580932559835349,1.811670655672867,0,0.5532141269353422,1.382934245482754,853.0036630036631,819.5604395604396,814.3223443223443,832.4542124542124,904.981684981685,593.919413919414,-0.378174,0.006348,0.909119,0.239258,0.231781,0.149536,364725347.985348,287645567.765568,2055750.915751,79.058975,1,1,1,1,1,96.000000
2025-09-25 15:37:14.794,0.09632941813088064,0,0.4178796421153497,0.3075188777806089,0.7518828389222809,0,0.148208833259367,0.3496389775094634,1.568795114720952,0,0.8005036288233505,1.629628607165569,2.029457162940304,0,0.8629955913370854,1.580932559835349,1.811670655672867,0,0.5532141269353422,1.382934245482754,857.8388278388279,793.3699633699634,814.3223443223443,848.974358974359,894.1025641025641,579.0109890109891,-0.378174,0.006348,0.909119,0.239258,0.231781,0.149536,364725347.985348,287645567.765568,2055750.915751,79.058975,1,1,1,1,1,96.000000
2025-09-25 15:37:14.794,0.09632941813088064,0,0.4178796421153497,0.3075188777806089,0.7518828389222809,0,0.148208833259367,0.3496389775094634,1.568795114720952,0,0.8005036288233505,1.629628607165569,2.029457162940304,0,0.8629955913370854,1.580932559835349,1.811670655672867,0,0.5532141269353422,1.382934245482754,778.0586080586081,805.4578754578755,807.0695970695971,789.3406593406594,779.2673992673992,641.4652014652015,-0.378174,0.006348,0.909119,0.239258,0.231781,0.149536,364673772.893773,287574652.014652,2065421.245421,79.058975,1,1,1,1,1,96.000000
2025-09-25 15:37:14.794,0.09632941813088064,0,0.4178796421153497,0.3075188777806089,0.7518828389222809,0,0.148208833259367,0.3496389775094634,1.568795114720952,0,0.8005036288233505,1.629628607165569,2.029457162940304,0,0.8629955913370854,1.580932559835349,1.811670655672867,0,0.5532141269353422,1.382934245482754,763.5531135531136,804.6520146520147,804.6520146520147,776.8498168498169,789.3406593406594,659.1941391941392,-0.378174,0.006348,0.909119,0.239258,0.231781,0.149536,364673772.893773,287574652.014652,2065421.245421,79.058975,1,1,1,1,1,96.000000
2025-09-25 15:37:14.794,0.09632941813088064,0,0.4178796421153497,0.3075188777806089,0.7518828389222809,0,0.148208833259367,0.3496389775094634,1.568795114720952,0,0.8005036288233505,1.629628607165569,2.029457162940304,0,0.8629955913370854,1.580932559835349,1.811670655672867,0,0.5532141269353422,1.382934245482754,808.6813186813187,807.8754578754579,804.2490842490843,813.919413919414,815.5311355311355,620.1098901098901,-0.378174,0.006348,0.909119,0.239258,0.231781,0.149536,364673772.893773,287574652.014652,2065421.245421,79.058975,1,1,1,1,1,96.000000
2025-09-25 15:37:14.794,0.09632941813088064,0,0.4178796421153497,0.3075188777806089,0.7518828389222809,0,0.148208833259367,0.3496389775094634,1.568795114720952,0,0.8005036288233505,1.629628607165569,2.029457162940304,0,0.8629955913370854,1.580932559835349,1.811670655672867,0,0.5532141269353422,1.382934245482754,861.4652014652015,802.2344322344322,809.8901098901099,846.959706959707,803.8461538461539,600.3663003663004,-0.378174,0.006348,0.909119,0.239258,0.231781,0.149536,364673772.893773,287574652.014652,2065421.245421,79.058975,1,1,1,1,1,96.000000
2025-09-25 15:37:14.794,0.09632941813088064,0,0.4178796421153497,0.3075188777806089,0.7518828389222809,0,0.148208833259367,0.3496389775094634,1.568795114720952,0,0.8005036288233505,1.629628607165569,2.029457162940304,0,0.8629955913370854,1.580932559835349,1.811670655672867,0,0.5532141269353422,1.382934245482754,838.901098901099,904.1758241758242,804.6520146520147,815.934065934066,761.1355311355312,811.5018315018315,-0.378174,0.006348,0.909119,0.239258,0.231781,0.149536,364673772.893773,287574652.014652,2065421.245421,79.058975,1,1,1,1,1,96.000000
2025-09-25 15:37:14.794,0.09632941813088064,0,0.4178796421153497,0.3075188777806089,0.7518828389222809,0,0.148208833259367,0.3496389775094634,1.568795114720952,0,0.8005036288233505,1.629628607165569,2.029457162940304,0,0.8629955913370854,1.580932559835349,1.811670655672867,0,0.5532141269353422,1.382934245482754,803.8461538461539,945.2747252747253,789.7435897435897,780.8791208791209,815.1282051282052,1139.487179487179,-0.378174,0.006348,0.909119,0.239258,0.231781,0.149536,364673772.893773,287574652.014652,2065421.245421,79.058975,1,1,1,1,1,96.000000
2025-09-25 15:37:14.794,0.09632941813088064,0,0.4178796421153497,0.3075188777806089,0.7518828389222809,0,0.148208833259367,0.3496389775094634,1.568795114720952,0,0.8005036288233505,1.629628607165569,2.029457162940304,0,0.8629955913370854,1.580932559835349,1.811670655672867,0,0.5532141269353422,1.382934245482754,814.3223443223443,815.934065934066,791.3553113553114,813.1135531135532,859.047619047619,1208.791208791209,-0.378174,0.006348,0.909119,0.239258,0.231781,0.149536,364673772.893773,287574652.014652,2065421.245421,79.058975,1,1,1,1,1,96.000000
2025-09-25 15:37:14.795,0.09632941813088064,0,0.4178796421153497,0.3075188777806089,0.7518828389222809,0,0.148208833259367,0.3496389775094634,1.568795114720952,0,0.8005036288233505,1.629628607165569,2.029457162940304,0,0.8629955913370854,1.580932559835349,1.811670655672867,0,0.5532141269353422,1.382934245482754,816.3369963369963,643.8827838827839,800.6227106227107,851.7948717948718,838.0952380952381,882.014652014652,-0.378174,0.006348,0.909119,0.239258,0.231781,0.149536,364673772.893773,287574652.014652,2065421.245421,79.058975,1,1,1,1,1,96.000000
2025-09-25 15:37:14.795,0.09632941813088064,0,0.4178796421153497,0.3075188777806089,0.7518828389222809,0,0.148208833259367,0.3496389775094634,1.568795114720952,0,0.8005036288233505,1.629628607165569,2.029457162940304,0,0.8629955913370854,1.580932559835349,1.811670655672867,0,0.5532141269353422,1.382934245482754,783.2967032967033,693.4432234432235,803.8461538461539,817.5457875457876,820.7692307692308,662.4175824175825,-0.378174,0.006348,0.909119,0.239258,0.231781,0.149536,364673772.893773,287574652.014652,2065421.245421,79.058975,1,1,1,1,1,96.000000
2025-09-25 15:37:14.795,0.09632941813088064,0,0.4178796421153497,0.3075188777806089,0.7518828389222809,0,0.148208833259367,0.3496389775094634,1.568795114720952,0,0.8005036288233505,1.629628607165569,2.029457162940304,0,0.8629955913370854,1.580932559835349,1.811670655672867,0,0.5532141269353422,1.382934245482754,766.7765567765568,792.1611721611722,801.025641025641,767.985347985348,793.3699633699634,674.1025641025641,-0.378174,0.006348,0.909119,0.239258,0.231781,0.149536,364673772.893773,287574652.014652,2065421.245421,79.058975,1,1,1,1,1,96.000000
2025-09-25 15:37:14.795,0.09632941813088064,0,0.4178796421153497,0.3075188777806089,0.7518828389222809,0,0.148208833259367,0.3496389775094634,1.568795114720952,0,0.8005036288233505,1.629628607165569,2.029457162940304,0,0.8629955913370854,1.580932559835349,1.811670655672867,0,0.5532141269353422,1.382934245482754,799.0109890109891,761.941391941392,801.8315018315019,788.1318681318681,830.8424908424909,595.934065934066,-0.378174,0.006348,0.909119,0.239258,0.231781,0.149536,364673772.893773,287574652.014652,2065421.245421,79.058975,1,1,1,1,1,96.000000
2025-09-25 15:37:14.795,0.1062403580218521,0,0.4262478645639347,0.3206402573490745,0.7765802538392682,0,0.1345825063466951,0.3397403838022674,1.562245069671545,0,0.7721176487646436,1.618585098604901,2.038305545522838,0,0.8352148939258981,1.586592742811078,1.827524406155106,0,0.5498054968028834,1.400895297227015,880,871.1355311355312,811.5018315018315,862.2710622710623,847.3626373626374,612.8571428571429,-0.378174,0.006348,0.909119,0.239258,0.231781,0.149536,364673772.893773,287574652.014652,2065421.245421,79.058975,1,1,1,1,1,96.000000
2025-09-25 15:37:14.795,0.1062403580218521,0,0.4262478645639347,0.3206402573490745,0.7765802538392682,0,0.1345825063466951,0.3397403838022674,1.562245069671545,0,0.7721176487646436,1.618585098604901,2.038305545522838,0,0.8352148939258981,1.586592742811078,1.827524406155106,0,0.5498054968028834,1.400895297227015,848.974358974359,865.4945054945056,816.7399267399268,838.0952380952381,840.1098901098901,753.0769230769231,-0.372986,0.008301,0.906372,0.157013,-1.121521,0.209351,364673772.893773,287574652.014652,2065421.245421,79.058975,1,1,1,1,1,96.000000
2025-09-25 15:37:14.795,0.1062403580218521,0,0.4262478645639347,0.3206402573490745,0.7765802538392682,0,0.1345825063466951,0.3397403838022674,1.562245069671545,0,0.7721176487646436,1.618585098604901,2.038305545522838,0,0.8352148939258981,1.586592742811078,1.827524406155106,0,0.5498054968028834,1.400895297227015,747.4358974358975,744.2124542124542,806.2637362637363,760.3296703296703,884.0293040293041,756.3003663003664,-0.372986,0.008301,0.906372,0.157013,-1.121521,0.209351,364673772.893773,287574652.014652,2065421.245421,79.058975,1,1,1,1,1,96.000000
2025-09-25 15:37:14.795,0.1062403580218521,0,0.4262478645639347,0.3206402573490745,0.7765802538392682,0,0.1345825063466951,0.3397403838022674,1.562245069671545,0,0.7721176487646436,1.618585098604901,2.038305545522838,0,0.8352148939258981,1.586592742811078,1.827524406155106,0,0.5498054968028834,1.400895297227015,771.6117216117216,884.0293040293041,799.4139194139194,771.6117216117216,826.4102564102565,808.2783882783883,-0.372986,0.008301,0.906372,0.157013,-1.121521,0.209351,364673772.893773,287574652.014652,2065421.245421,79.058975,1,1,1,1,1,96.000000
2025-09-25 15:37:14.796,0.1062403580218521,0,0.4262478645639347,0.3206402573490745,0.7765802538392682,0,0.1345825063466951,0.3397403838022674,1.562245069671545,0,0.7721176487646436,1.618585098604901,2.038305545522838,0,0.8352148939258981,1.586592742811078,1.827524406155106,0,0.5498054968028834,1.400895297227015,877.5824175824176,980.7326007326008,803.8461538461539,845.3479853479854,802.2344322344322,1028.681318681319,-0.372986,0.008301,0.906372,0.157013,-1.121521,0.209351,364673772.893773,287574652.014652,2065421.245421,79.058975,1,1,1,1,1,96.000000
2025-09-25 15:37:14.796,0.1062403580218521,0,0.4262478645639347,0.3206402573490745,0.7765802538392682,0,0.1345825063466951,0.3397403838022674,1.562245069671545,0,0.7721176487646436,1.618585098604901,2.038305545522838,0,0.8352148939258981,1.586592742811078,1.827524406155106,0,0.5498054968028834,1.400895297227015,847.3626373626374,682.967032967033,807.0695970695971,857.032967032967,885.6410256410256,918.6813186813187,-0.372986,0.008301,0.906372,0.157013,-1.121521,0.209351,364673772.893773,287574652.014652,2065421.245421,79.058975,1,1,1,1,1,96.000000
2025-09-25 15:37:14.796,0.1062403580218521,0,0.4262478645639347,0.3206402573490745,0.7765802538392682,0,0.1345825063466951,0.3397403838022674,1.562245069671545,0,0.7721176487646436,1.618585098604901,2.038305545522838,0,0.8352148939258981,1.586592742811078,1.827524406155106,0,0.5498054968028834,1.400895297227015,728.901098901099,803.4432234432235,794.981684981685,759.92673992674,755.4945054945055,935.2014652014652,-0.372986,0.008301,0.906372,0.157013,-1.121521,0.209351,364673772.893773,287574652.014652,2065421.245421,79.058975,1,1,1,1,1,96.000000
2025-09-25 15:37:14.796,0.1062403580218521,0,0.4262478645639347,0.3206402573490745,0.7765802538392682,0,0.1345825063466951,0.3397403838022674,1.562245069671545,0,0.7721176487646436,1.618585098604901,2.038305545522838,0,0.8352148939258981,1.586592742811078,1.827524406155106,0,0.5498054968028834,1.400895297227015,716.007326007326,751.8681318681319,782.4908424908425,738.1684981684982,806.6666666666667,1046.007326007326,-0.372986,0.008301,0.906372,0.157013,-1.121521,0.209351,364673772.893773,287574652.014652,2065421.245421,79.058975,1,1,1,1,1,96.000000
2025-09-25 15:37:14.796,0.1062403580218521,0,0.4262478645639347,0.3206402573490745,0.7765802538392682,0,0.1345825063466951,0.3397403838022674,1.562245069671545,0,0.7721176487646436,1.618585098604901,2.038305545522838,0,0.8352148939258981,1.586592742811078,1.827524406155106,0,0.5498054968028834,1.400895297227015,757.5091575091575,705.1282051282052,785.7142857142858,787.7289377289378,895.3113553113553,881.2087912087912,-0.372986,0.008301,0.906372,0.157013,-1.121521,0.209351,364673772.893773,287574652.014652,2065421.245421,79.058975,1,1,1,1,1,96.000000
2025-09-25 15:37:14.796,0.1062403580218521,0,0.4262478645639347,0.3206402573490745,0.7765802538392682,0,0.1345825063466951,0.3397403838022674,1.562245069671545,0,0.7721176487646436,1.618585098604901,2.038305545522838,0,0.8352148939258981,1.586592742811078,1.827524406155106,0,0.5498054968028834,1.400895297227015,827.2161172161173,843.7362637362637,797.8021978021978,828.8278388278388,847.7655677655678,877.1794871794872,-0.372986,0.008301,0.906372,0.157013,-1.121521,0.209351,364673772.893773,287574652.014652,2065421.245421,79.058975,1,1,1,1,1,96.000000
2025-09-25 15:37:14.796,0.1062403580218521,0,0.4262478645639347,0.3206402573490745,0.7765802538392682,0,0.1345825063466951,0.3397403838022674,1.562245069671545,0,0.7721176487646436,1.618585098604901,2.038305545522838,0,0.8352148939258981,1.586592742811078,1.827524406155106,0,0.5498054968028834,1.400895297227015,790.952380952381,659.5970695970697,805.8608058608058,794.1758241758242,877.985347985348,772.4175824175825,-0.372986,0.008301,0.906372,0.157013,-1.121521,0.209351,364673772.893773,287574652.014652,2065421.245421,79.058975,1,1,1,1,1,96.000000
2025-09-25 15:37:14.796,0.1062403580218521,0,0.4262478645639347,0.3206402573490745,0.7765802538392682,0,0.1345825063466951,0.3397403838022674,1.562245069671545,0,0.7721176487646436,1.618585098604901,2.038305545522838,0,0.8352148939258981,1.586592742811078,1.827524406155106,0,0.5498054968028834,1.400895297227015,738.1684981684982,663.6263736263736,809.4871794871796,755.0915750915751,824.7985347985348,566.5201465201466,-0.372986,0.008301,0.906372,0.157013,-1.121521,0.209351,364673772.893773,287574652.014652,2065421.245421,79.058975,1,1,1,1,1,96.000000
2025-09-25 15:37:14.796,0.1062403580218521,0,0.4262478645639347,0.3206402573490745,0.7765802538392682,0,0.1345825063466951,0.3397403838022674,1.562245069671545,0,0.7721176487646436,1.618585098604901,2.038305545522838,0,0.8352148939258981,1.586592742811078,1.827524406155106,0,0.5498054968028834,1.400895297227015,776.0439560439561,818.7545787545788,812.7106227106227,781.2820512820513,748.6446886446887,516.5567765567765,-0.372986,0.008301,0.906372,0.157013,-1.121521,0.209351,364673772.893773,287574652.014652,2065421.245421,79.058975,1,1,1,1,1,96.000000
2025-09-25 15:37:14.839,0.1062403580218521,0,0.4262478645639347,0.3206402573490745,0.7765802538392682,0,0.1345825063466951,0.3397403838022674,1.562245069671545,0,0.7721176487646436,1.618585098604901,2.038305545522838,0,0.8352148939258981,1.586592742811078,1.827524406155106,0,0.5498054968028834,1.400895297227015,872.3443223443223,911.4285714285714,814.7252747252747,849.3772893772895,730.9157509157509,609.2307692307693,-0.377930,0.010742,0.918274,0.179443,-1.390686,-0.336456,364618168.498168,287625421.245421,2063003.663004,79.058975,1,1,1,1,1,96.000000
2025-09-25 15:37:14.839,0.1062403580218521,0,0.4262478645639347,0.3206402573490745,0.7765802538392682,0,0.1345825063466951,0.3397403838022674,1.562245069671545,0,0.7721176487646436,1.618585098604901,2.038305545522838,0,0.8352148939258981,1.586592742811078,1.827524406155106,0,0.5498054968028834,1.400895297227015,847.7655677655678,835.6776556776557,808.6813186813187,843.7362637362637,808.2783882783883,683.7728937728938,-0.377930,0.010742,0.918274,0.179443,-1.390686,-0.336456,364618168.498168,287625421.245421,2063003.663004,79.058975,1,1,1,1,1,96.000000
2025-09-25 15:37:14.839,0.1062403580218521,0,0.4262478645639347,0.3206402573490745,0.7765802538392682,0,0.1345825063466951,0.3397403838022674,1.562245069671545,0,0.7721176487646436,1.618585098604901,2.038305545522838,0,0.8352148939258981,1.586592742811078,1.827524406155106,0,0.5498054968028834,1.400895297227015,762.7472527472528,811.0989010989011,799.4139194139194,774.8351648351648,863.4798534798535,756.3003663003664,-0.377930,0.010742,0.918274,0.179443,-1.390686,-0.336456,364618168.498168,287625421.245421,2063003.663004,79.058975,1,1,1,1,1,96.000000
2025-09-25 15:37:14.839,0.1062403580218521,0,0.4262478645639347,0.3206402573490745,0.7765802538392682,0,0.1345825063466951,0.3397403838022674,1.562245069671545,0,0.7721176487646436,1.618585098604901,2.038305545522838,0,0.8352148939258981,1.586592742811078,1.827524406155106,0,0.5498054968028834,1.400895297227015,744.2124542124542,759.5238095238095,794.981684981685,759.1208791208792,830.0366300366301,718.8278388278388,-0.377930,0.010742,0.918274,0.179443,-1.390686,-0.336456,364618168.498168,287625421.245421,2063003.663004,79.058975,1,1,1,1,1,96.000000
2025-09-25 15:37:14.839,0.1062403580218521,0,0.4262478645639347,0.3206402573490745,0.7765802538392682,0,0.1345825063466951,0.3397403838022674,1.562245069671545,0,0.7721176487646436,1.618585098604901,2.038305545522838,0,0.8352148939258981,1.586592742811078,1.827524406155106,0,0.5498054968028834,1.400895297227015,798.2051282051282,809.0842490842491,796.996336996337,810.6959706959707,760.7326007326008,636.6300366300367,-0.377930,0.010742,0.918274,0.179443,-1.390686,-0.336456,364618168.498168,287625421.245421,2063003.663004,79.058975,1,1,1,1,1,96.000000
2025-09-25 15:37:14.839,0.1062403580218521,0,0.4262478645639347,0.3206402573490745,0.7765802538392682,0,0.1345825063466951,0.3397403838022674,1.562245069671545,0,0.7721176487646436,1.618585098604901,2.038305545522838,0,0.8352148939258981,1.586592742811078,1.827524406155106,0,0.5498054968028834,1.400895297227015,864.2857142857143,892.0879120879121,799.8168498168499,842.1245421245421,767.5824175824176,803.040293040293,-0.377930,0.010742,0.918274,0.179443,-1.390686,-0.336456,364618168.498168,287625421.245421,2063003.663004,79.058975,1,1,1,1,1,96.000000
2025-09-25 15:37:14.839,0.1062403580218521,0,0.4262478645639347,0.3206402573490745,0.7765802538392682,0,0.1345825063466951,0.3397403838022674,1.562245069671545,0,0.7721176487646436,1.618585098604901,2.038305545522838,0,0.8352148939258981,1.586592742811078,1.827524406155106,0,0.5498054968028834,1.400895297227015,834.8717948717949,875.1648351648352,799.8168498168499,812.7106227106227,806.2637362637363,1075.824175824176,-0.377930,0.010742,0.918274,0.179443,-1.390686,-0.336456,364618168.498168,287625421.245421,2063003.663004,79.058975,1,1,1,1,1,96.000000
2025-09-25 15:37:14.839,0.1062403580218521,0,0.4262478645639347,0.3206402573490745,0.7765802538392682,0,0.1345825063466951,0.3397403838022674,1.562245069671545,0,0.7721176487646436,1.618585098604901,2.038305545522838,0,0.8352148939258981,1.586592742811078,1.827524406155106,0,0.5498054968028834,1.400895297227015,795.3846153846154,757.9120879120879,797.8021978021978,792.5641025641025,904.981684981685,1129.81684981685,-0.377930,0.010742,0.918274,0.179443,-1.390686,-0.336456,364618168.498168,287625421.245421,2063003.663004,79.058975,1,1,1,1,1,96.000000
2025-09-25 15:37:14.839,0.1062403580218521,0,0.4262478645639347,0.3206402573490745,0.7765802538392682,0,0.1345825063466951,0.3397403838022674,1.562245069671545,0,0.7721176487646436,1.618585098604901,2.038305545522838,0,0.8352148939258981,1.586592742811078,1.827524406155106,0,0.5498054968028834,1.400895297227015,786.9230769230769,686.5934065934066,790.1465201465202,800.2197802197802,999.2673992673992,918.6813186813187,-0.377930,0.010742,0.918274,0.179443,-1.390686,-0.336456,364618168.498168,287625421.245421,2063003.663004,79.058975,1,1,1,1,1,96.000000
2025-09-25 15:37:14.840,0.1062403580218521,0,0.4262478645639347,0.3206402573490745,0.7765802538392682,0,0.1345825063466951,0.3397403838022674,1.562245069671545,0,0.7721176487646436,1.618585098604901,2.038305545522838,0,0.8352148939258981,1.586592742811078,1.827524406155106,0,0.5498054968028834,1.400895297227015,820.7692307692308,793.7728937728938,794.981684981685,835.6776556776557,909.4139194139194,833.2600732600733,-0.377930,0.010742,0.918274,0.179443,-1.390686,-0.336456,364618168.498168,287625421.245421,2063003.663004,79.058975,1,1,1,1,1,96.000000
