TimeStamp,Delta_TP9,Delta_AF7,Delta_AF8,Delta_TP10,Theta_TP9,Theta_AF7,Theta_AF8,Theta_TP10,Alpha_TP9,Alpha_AF7,Alpha_AF8,Alpha_TP10,Beta_TP9,Beta_AF7,Beta_AF8,Beta_TP10,Gamma_TP9,Gamma_AF7,Gamma_AF8,Gamma_TP10,RAW_TP9,RAW_AF7,RAW_AF8,RAW_TP10,AUX_RIGHT,AUX_LEFT,Accelerometer_X,Accelerometer_Y,Accelerometer_Z,Gyro_X,Gyro_Y,Gyro_Z,PPG_Ambient,PPG_IR,PPG_Red,Heart_Rate,HeadBandOn,HSI_TP9,HSI_AF7,HSI_AF8,HSI_TP10,Battery,Elements
2025-09-17 18:09:20.697,,,,,,,,,,,,,,,,,,,,,,,,,,,,,,,,,,,,,,,,,,,/muse/event/connected MuseS-9CF6
2025-09-17 18:09:20.702,0.38483584,0.0,0.1922973,1.2402916,0.250099,0.0,-0.04387432,0.62634635,-0.012604452,0.0,0.10748723,0.2519302,0.47967836,0.0,-0.047416463,0.17616232,-0.09696741,0.0,-0.39526436,-0.2134887,810.696,892.0879,800.6227,792.1612,790.54944,591.0989,0.007568359375,0.12347412109375,0.978515625,2.332763671875,0.994415283203125,2.8411865234375,4.225023443223443E8,3.2256593406593406E8,2345054.945054945,79.35718,1,1.0,1.0,1.0,1.0,85.00
2025-09-17 18:09:20.702,0.38483584,0.0,0.1922973,1.2402916,0.250099,0.0,-0.04387432,0.62634635,-0.012604452,0.0,0.10748723,0.2519302,0.47967836,0.0,-0.047416463,0.17616232,-0.09696741,0.0,-0.39526436,-0.2134887,913.8461,959.3773,806.6667,884.43225,800.2198,793.7729,0.007568359375,0.12347412109375,0.978515625,2.332763671875,0.994415283203125,2.8411865234375,4.225023443223443E8,3.2256593406593406E8,2345054.945054945,79.35718,1,1.0,1.0,1.0,1.0,85.00
2025-09-17 18:09:20.703,0.38483584,0.0,0.1922973,1.2402916,0.250099,0.0,-0.04387432,0.62634635,-0.012604452,0.0,0.10748723,0.2519302,0.47967836,0.0,-0.047416463,0.17616232,-0.09696741,0.0,-0.39526436,-0.2134887,813.91943,759.92676,805.4579,827.619,788.1319,802.23444,0.007568359375,0.12347412109375,0.978515625,2.332763671875,0.994415283203125,2.8411865234375,4.225023443223443E8,3.2256593406593406E8,2345054.945054945,79.35718,1,1.0,1.0,1.0,1.0,85.00
2025-09-17 18:09:20.704,0.38483584,0.0,0.1922973,1.2402916,0.250099,0.0,-0.04387432,0.62634635,-0.012604452,0.0,0.10748723,0.2519302,0.47967836,0.0,-0.047416463,0.17616232,-0.09696741,0.0,-0.39526436,-0.2134887,705.5311,737.3626,801.8315,732.52747,757.50916,742.6007,0.007568359375,0.12347412109375,0.978515625,2.332763671875,0.994415283203125,2.8411865234375,4.225023443223443E8,3.2256593406593406E8,2345054.945054945,79.35718,1,1.0,1.0,1.0,1.0,85.00
2025-09-17 18:09:20.704,0.38483584,0.0,0.1922973,1.2402916,0.250099,0.0,-0.04387432,0.62634635,-0.012604452,0.0,0.10748723,0.2519302,0.47967836,0.0,-0.047416463,0.17616232,-0.09696741,0.0,-0.39526436,-0.2134887,785.7143,926.337,801.8315,774.0293,799.41394,1016.5934,0.007568359375,0.12347412109375,0.978515625,2.332763671875,0.994415283203125,2.8411865234375,4.225023443223443E8,3.2256593406593406E8,2345054.945054945,79.35718,1,1.0,1.0,1.0,1.0,85.00
2025-09-17 18:09:20.704,0.38483584,0.0,0.1922973,1.2402916,0.250099,0.0,-0.04387432,0.62634635,-0.012604452,0.0,0.10748723,0.2519302,0.47967836,0.0,-0.047416463,0.17616232,-0.09696741,0.0,-0.39526436,-0.2134887,908.60803,965.42126,806.26373,871.53845,841.31866,1267.619,0.007568359375,0.12347412109375,0.978515625,2.332763671875,0.994415283203125,2.8411865234375,4.225023443223443E8,3.2256593406593406E8,2345054.945054945,79.35718,1,1.0,1.0,1.0,1.0,85.00
2025-09-17 18:09:20.705,0.38483584,0.0,0.1922973,1.2402916,0.250099,0.0,-0.04387432,0.62634635,-0.012604452,0.0,0.10748723,0.2519302,0.47967836,0.0,-0.047416463,0.17616232,-0.09696741,0.0,-0.39526436,-0.2134887,847.3626,762.74725,809.4872,856.2271,847.3626,1316.7766,0.007568359375,0.12347412109375,0.978515625,2.332763671875,0.994415283203125,2.8411865234375,4.225023443223443E8,3.2256593406593406E8,2345054.945054945,79.35718,1,1.0,1.0,1.0,1.0,85.00
2025-09-17 18:09:20.705,0.38483584,0.0,0.16827904,1.2402916,0.250099,0.0,-0.05920861,0.62634635,-0.012604452,0.0,0.10349712,0.2519302,0.47967836,0.0,-0.042965796,0.17616232,-0.09696741,0.0,-0.4006258,-0.2134887,710.3663,599.15753,802.23444,754.2857,809.4872,843.73627,0.007568359375,0.12347412109375,0.978515625,2.332763671875,0.994415283203125,2.8411865234375,4.225023443223443E8,3.2256593406593406E8,2345054.945054945,79.35718,1,1.0,1.0,1.0,1.0,85.00
2025-09-17 18:09:20.706,0.38483584,0.0,0.16827904,1.2402916,0.250099,0.0,-0.05920861,0.62634635,-0.012604452,0.0,0.10349712,0.2519302,0.47967836,0.0,-0.042965796,0.17616232,-0.09696741,0.0,-0.4006258,-0.2134887,739.3773,813.1135,796.1905,746.2271,758.315,774.43225,0.007568359375,0.12347412109375,0.978515625,2.332763671875,0.994415283203125,2.8411865234375,4.225023443223443E8,3.2256593406593406E8,2345054.945054945,79.35718,1,1.0,1.0,1.0,1.0,85.00
2025-09-17 18:09:20.707,0.38483584,0.0,0.16827904,1.2402916,0.250099,0.0,-0.05920861,0.62634635,-0.012604452,0.0,0.10349712,0.2519302,0.47967836,0.0,-0.042965796,0.17616232,-0.09696741,0.0,-0.4006258,-0.2134887,879.59705,883.6264,801.4286,845.7509,728.49817,792.1612,0.007568359375,0.12347412109375,0.978515625,2.332763671875,0.994415283203125,2.8411865234375,4.225023443223443E8,3.2256593406593406E8,2345054.945054945,79.35718,1,1.0,1.0,1.0,1.0,85.00
2025-09-17 18:09:20.707,0.38483584,0.0,0.16827904,1.2402916,0.250099,0.0,-0.05920861,0.62634635,-0.012604452,0.0,0.10349712,0.2519302,0.47967836,0.0,-0.042965796,0.17616232,-0.09696741,0.0,-0.4006258,-0.2134887,881.2088,801.8315,807.47253,876.3736,776.4469,645.4945,0.007568359375,0.12347412109375,0.978515625,2.332763671875,0.994415283203125,2.8411865234375,4.225023443223443E8,3.2256593406593406E8,2345054.945054945,79.35718,1,1.0,1.0,1.0,1.0,85.00
2025-09-17 18:09:20.707,0.38483584,0.0,0.16827904,1.2402916,0.250099,0.0,-0.05920861,0.62634635,-0.012604452,0.0,0.10349712,0.2519302,0.47967836,0.0,-0.042965796,0.17616232,-0.09696741,0.0,-0.4006258,-0.2134887,743.4066,701.9048,804.65204,777.6557,817.9487,636.63007,0.007568359375,0.12347412109375,0.978515625,2.332763671875,0.994415283203125,2.8411865234375,4.225023443223443E8,3.2256593406593406E8,2345054.945054945,79.35718,1,1.0,1.0,1.0,1.0,85.00
2025-09-17 18:09:20.739,0.38483584,0.0,0.16827904,1.2402916,0.250099,0.0,-0.05920861,0.62634635,-0.012604452,0.0,0.10349712,0.2519302,0.47967836,0.0,-0.042965796,0.17616232,-0.09696741,0.0,-0.4006258,-0.2134887,711.1722,744.61536,799.011,730.9158,872.3443,581.8315,0.00347900390625,0.14715576171875,0.97991943359375,2.37762451171875,-0.19439697265625,2.76641845703125,4.225023443223443E8,3.2256593406593406E8,2345054.945054945,79.35718,1,1.0,1.0,1.0,1.0,85.00
2025-09-17 18:09:20.739,0.38483584,0.0,0.16827904,1.2402916,0.250099,0.0,-0.05920861,0.62634635,-0.012604452,0.0,0.10349712,0.2519302,0.47967836,0.0,-0.042965796,0.17616232,-0.09696741,0.0,-0.4006258,-0.2134887,836.8865,911.4286,804.2491,825.2015,922.71063,760.32965,0.00347900390625,0.14715576171875,0.97991943359375,2.37762451171875,-0.19439697265625,2.76641845703125,4.225023443223443E8,3.2256593406593406E8,2345054.945054945,79.35718,1,1.0,1.0,1.0,1.0,85.00
2025-09-17 18:09:20.740,0.38483584,0.0,0.16827904,1.2402916,0.250099,0.0,-0.05920861,0.62634635,-0.012604452,0.0,0.10349712,0.2519302,0.47967836,0.0,-0.042965796,0.17616232,-0.09696741,0.0,-0.4006258,-0.2134887,896.1172,892.8938,811.0989,888.0586,884.43225,873.5531,0.00347900390625,0.14715576171875,0.97991943359375,2.37762451171875,-0.19439697265625,2.76641845703125,4.225023443223443E8,3.2256593406593406E8,2345054.945054945,79.35718,1,1.0,1.0,1.0,1.0,85.00
2025-09-17 18:09:20.740,0.38483584,0.0,0.16827904,1.2402916,0.250099,0.0,-0.05920861,0.62634635,-0.012604452,0.0,0.10349712,0.2519302,0.47967836,0.0,-0.042965796,0.17616232,-0.09696741,0.0,-0.4006258,-0.2134887,774.83514,674.90845,808.68134,803.44324,841.7216,622.1245,0.00347900390625,0.14715576171875,0.97991943359375,2.37762451171875,-0.19439697265625,2.76641845703125,4.225023443223443E8,3.2256593406593406E8,2345054.945054945,79.35718,1,1.0,1.0,1.0,1.0,85.00
2025-09-17 18:09:20.740,0.38483584,0.0,0.16827904,1.2402916,0.250099,0.0,-0.05920861,0.62634635,-0.012604452,0.0,0.10349712,0.2519302,0.47967836,0.0,-0.042965796,0.17616232,-0.09696741,0.0,-0.4006258,-0.2134887,691.4286,724.4689,803.0403,722.4542,810.293,581.8315,0.00347900390625,0.14715576171875,0.97991943359375,2.37762451171875,-0.19439697265625,2.76641845703125,4.225023443223443E8,3.2256593406593406E8,2345054.945054945,79.35718,1,1.0,1.0,1.0,1.0,85.00
2025-09-17 18:09:20.741,0.38483584,0.0,0.16827904,1.2402916,0.250099,0.0,-0.05920861,0.62634635,-0.012604452,0.0,0.10349712,0.2519302,0.47967836,0.0,-0.042965796,0.17616232,-0.09696741,0.0,-0.4006258,-0.2134887,794.17584,958.97437,802.23444,786.9231,803.44324,1037.5458,0.00347900390625,0.14715576171875,0.97991943359375,2.37762451171875,-0.19439697265625,2.76641845703125,4.225023443223443E8,3.2256593406593406E8,2345054.945054945,79.35718,1,1.0,1.0,1.0,1.0,85.00
2025-09-17 18:09:20.741,0.38483584,0.0,0.16827904,1.2402916,0.250099,0.0,-0.05920861,0.62634635,-0.012604452,0.0,0.10349712,0.2519302,0.47967836,0.0,-0.042965796,0.17616232,-0.09696741,0.0,-0.4006258,-0.2134887,899.34064,902.5641,808.2784,877.98535,797.8022,1105.641,0.00347900390625,0.14715576171875,0.97991943359375,2.37762451171875,-0.19439697265625,2.76641845703125,4.225023443223443E8,3.2256593406593406E8,2345054.945054945,79.35718,1,1.0,1.0,1.0,1.0,85.00
2025-09-17 18:09:20.741,0.38483584,0.0,0.16827904,1.2402916,0.250099,0.0,-0.05920861,0.62634635,-0.012604452,0.0,0.10349712,0.2519302,0.47967836,0.0,-0.042965796,0.17616232,-0.09696741,0.0,-0.4006258,-0.2134887,802.23444,737.76556,804.65204,825.6044,794.17584,1035.5311,0.00347900390625,0.14715576171875,0.97991943359375,2.37762451171875,-0.19439697265625,2.76641845703125,4.225023443223443E8,3.2256593406593406E8,2345054.945054945,79.35718,1,1.0,1.0,1.0,1.0,85.00
2025-09-17 18:09:20.741,0.38483584,0.0,0.16827904,1.2402916,0.250099,0.0,-0.05920861,0.62634635,-0.012604452,0.0,0.10349712,0.2519302,0.47967836,0.0,-0.042965796,0.17616232,-0.09696741,0.0,-0.4006258,-0.2134887,680.54944,672.0879,793.7729,734.1392,834.87177,902.96704,0.00347900390625,0.14715576171875,0.97991943359375,2.37762451171875,-0.19439697265625,2.76641845703125,4.225023443223443E8,3.2256593406593406E8,2345054.945054945,79.35718,1,1.0,1.0,1.0,1.0,85.00
2025-09-17 18:09:20.742,0.38483584,0.0,0.16827904,1.2402916,0.250099,0.0,-0.05920861,0.62634635,-0.012604452,0.0,0.10349712,0.2519302,0.47967836,0.0,-0.042965796,0.17616232,-0.09696741,0.0,-0.4006258,-0.2134887,747.8388,774.83514,792.96704,760.7326,817.1429,625.7509,0.00347900390625,0.14715576171875,0.97991943359375,2.37762451171875,-0.19439697265625,2.76641845703125,4.225023443223443E8,3.2256593406593406E8,2345054.945054945,79.35718,1,1.0,1.0,1.0,1.0,85.00
2025-09-17 18:09:20.742,0.38483584,0.0,0.16827904,1.2402916,0.250099,0.0,-0.05920861,0.62634635,-0.012604452,0.0,0.10349712,0.2519302,0.47967836,0.0,-0.042965796,0.17616232,-0.09696741,0.0,-0.4006258,-0.2134887,886.04395,915.4579,799.011,857.03296,868.315,671.685,0.00347900390625,0.14715576171875,0.97991943359375,2.37762451171875,-0.19439697265625,2.76641845703125,4.225023443223443E8,3.2256593406593406E8,2345054.945054945,79.35718,1,1.0,1.0,1.0,1.0,85.00
2025-09-17 18:09:20.742,0.38483584,0.0,0.16827904,1.2402916,0.250099,0.0,-0.05920861,0.62634635,-0.012604452,0.0,0.10349712,0.2519302,0.47967836,0.0,-0.042965796,0.17616232,-0.09696741,0.0,-0.4006258,-0.2134887,851.39197,813.5165,803.0403,853.00366,948.0952,813.5165,0.00347900390625,0.14715576171875,0.97991943359375,2.37762451171875,-0.19439697265625,2.76641845703125,4.225023443223443E8,3.2256593406593406E8,2345054.945054945,79.35718,1,1.0,1.0,1.0,1.0,85.00
2025-09-17 18:09:20.766,0.38483584,0.0,0.16827904,1.2402916,0.250099,0.0,-0.05920861,0.62634635,-0.012604452,0.0,0.10349712,0.2519302,0.47967836,0.0,-0.042965796,0.17616232,-0.09696741,0.0,-0.4006258,-0.2134887,712.381,690.6227,801.4286,750.65936,913.0403,807.0696,0.00732421875,0.1561279296875,1.0018310546875,0.52337646484375,-0.710296630859375,0.485992431640625,4.225023443223443E8,3.225038827838828E8,2349084.249084249,79.34655,1,1.0,1.0,1.0,1.0,85.00
2025-09-17 18:09:20.767,0.38483584,0.0,0.16827904,1.2402916,0.250099,0.0,-0.05920861,0.62634635,-0.012604452,0.0,0.10349712,0.2519302,0.47967836,0.0,-0.042965796,0.17616232,-0.09696741,0.0,-0.4006258,-0.2134887,725.6777,757.1062,798.20514,736.55676,802.6374,643.8828,0.00732421875,0.1561279296875,1.0018310546875,0.52337646484375,-0.710296630859375,0.485992431640625,4.225023443223443E8,3.225038827838828E8,2349084.249084249,79.34655,1,1.0,1.0,1.0,1.0,85.00
2025-09-17 18:09:20.767,0.38483584,0.0,0.16827904,1.2402916,0.250099,0.0,-0.05920861,0.62634635,-0.012604452,0.0,0.10349712,0.2519302,0.47967836,0.0,-0.042965796,0.17616232,-0.09696741,0.0,-0.4006258,-0.2134887,869.12085,911.4286,803.44324,837.6923,813.91943,669.67035,0.00732421875,0.1561279296875,1.0018310546875,0.52337646484375,-0.710296630859375,0.485992431640625,4.225023443223443E8,3.225038827838828E8,2349084.249084249,79.34655,1,1.0,1.0,1.0,1.0,85.00
2025-09-17 18:09:20.767,0.38483584,0.0,0.16827904,1.2402916,0.250099,0.0,-0.05920861,0.62634635,-0.012604452,0.0,0.10349712,0.2519302,0.47967836,0.0,-0.042965796,0.17616232,-0.09696741,0.0,-0.4006258,-0.2134887,885.64105,830.84247,809.4872,879.19415,859.0476,643.47986,0.00732421875,0.1561279296875,1.0018310546875,0.52337646484375,-0.710296630859375,0.485992431640625,4.225023443223443E8,3.225038827838828E8,2349084.249084249,79.34655,1,1.0,1.0,1.0,1.0,85.00
2025-09-17 18:09:20.768,0.38483584,0.0,0.16827904,1.2402916,0.250099,0.0,-0.05920861,0.62634635,-0.012604452,0.0,0.10349712,0.2519302,0.47967836,0.0,-0.042965796,0.17616232,-0.09696741,0.0,-0.4006258,-0.2134887,753.47986,726.08057,806.26373,786.1172,821.5751,638.6447,0.00732421875,0.1561279296875,1.0018310546875,0.52337646484375,-0.710296630859375,0.485992431640625,4.225023443223443E8,3.225038827838828E8,2349084.249084249,79.34655,1,1.0,1.0,1.0,1.0,85.00
2025-09-17 18:09:20.768,0.38483584,0.0,0.16827904,1.2402916,0.250099,0.0,-0.05920861,0.62634635,-0.012604452,0.0,0.10349712,0.2519302,0.47967836,0.0,-0.042965796,0.17616232,-0.09696741,0.0,-0.4006258,-0.2134887,709.5604,829.2308,799.011,728.0952,793.36993,968.24176,0.00732421875,0.1561279296875,1.0018310546875,0.52337646484375,-0.710296630859375,0.485992431640625,4.225023443223443E8,3.225038827838828E8,2349084.249084249,79.34655,1,1.0,1.0,1.0,1.0,85.00
2025-09-17 18:09:20.768,0.38483584,0.0,0.16827904,1.2402916,0.250099,0.0,-0.05920861,0.62634635,-0.012604452,0.0,0.10349712,0.2519302,0.47967836,0.0,-0.042965796,0.17616232,-0.09696741,0.0,-0.4006258,-0.2134887,827.619,883.22345,796.5934,805.8608,763.1502,1047.2161,0.00732421875,0.1561279296875,1.0018310546875,0.52337646484375,-0.710296630859375,0.485992431640625,4.225023443223443E8,3.225038827838828E8,2349084.249084249,79.34655,1,1.0,1.0,1.0,1.0,85.00
2025-09-17 18:09:20.769,0.38483584,0.0,0.16827904,1.2402916,0.250099,0.0,-0.05920861,0.62634635,-0.012604452,0.0,0.10349712,0.2519302,0.47967836,0.0,-0.042965796,0.17616232,-0.09696741,0.0,-0.4006258,-0.2134887,904.17584,878.7912,801.8315,881.6117,800.6227,931.1722,0.00732421875,0.1561279296875,1.0018310546875,0.52337646484375,-0.710296630859375,0.485992431640625,4.225023443223443E8,3.225038827838828E8,2349084.249084249,79.34655,1,1.0,1.0,1.0,1.0,85.00
2025-09-17 18:09:20.769,0.38483584,0.0,0.16827904,1.2402916,0.250099,0.0,-0.05920861,0.62634635,-0.012604452,0.0,0.10349712,0.2519302,0.47967836,0.0,-0.042965796,0.17616232,-0.09696741,0.0,-0.4006258,-0.2134887,787.326,771.6117,802.23444,806.6667,822.7839,1030.2931,0.00732421875,0.1561279296875,1.0018310546875,0.52337646484375,-0.710296630859375,0.485992431640625,4.225023443223443E8,3.225038827838828E8,2349084.249084249,79.34655,1,1.0,1.0,1.0,1.0,85.00
2025-09-17 18:09:20.769,0.38483584,0.0,0.1533121,1.2402916,0.250099,0.0,-0.08438306,0.62634635,-0.012604452,0.0,0.06683293,0.2519302,0.47967836,0.0,-0.042965434,0.17616232,-0.09696741,0.0,-0.41147384,-0.2134887,687.3993,643.47986,793.7729,717.619,796.5934,743.8095,0.00732421875,0.1561279296875,1.0018310546875,0.52337646484375,-0.710296630859375,0.485992431640625,4.225023443223443E8,3.225038827838828E8,2349084.249084249,79.34655,1,1.0,4.0,1.0,1.0,85.00
2025-09-17 18:09:20.771,0.38483584,0.0,0.1533121,1.2402916,0.250099,0.0,-0.08438306,0.62634635,-0.012604452,0.0,0.06683293,0.2519302,0.47967836,0.0,-0.042965434,0.17616232,-0.09696741,0.0,-0.41147384,-0.2134887,784.90845,875.56775,798.20514,781.28204,822.7839,625.7509,0.00732421875,0.1561279296875,1.0018310546875,0.52337646484375,-0.710296630859375,0.485992431640625,4.225023443223443E8,3.225038827838828E8,2349084.249084249,79.34655,1,1.0,4.0,1.0,1.0,85.00
2025-09-17 18:09:20.771,0.38483584,0.0,0.1533121,1.2402916,0.250099,0.0,-0.08438306,0.62634635,-0.012604452,0.0,0.06683293,0.2519302,0.47967836,0.0,-0.042965434,0.17616232,-0.09696741,0.0,-0.41147384,-0.2134887,900.14655,956.9597,804.2491,874.7619,819.15753,856.63007,0.00732421875,0.1561279296875,1.0018310546875,0.52337646484375,-0.710296630859375,0.485992431640625,4.225023443223443E8,3.225038827838828E8,2349084.249084249,79.34655,1,1.0,4.0,1.0,1.0,85.00
2025-09-17 18:09:20.792,0.38483584,0.0,0.1533121,1.2402916,0.250099,0.0,-0.08438306,0.62634635,-0.012604452,0.0,0.06683293,0.2519302,0.47967836,0.0,-0.042965434,0.17616232,-0.09696741,0.0,-0.41147384,-0.2134887,816.337,724.4689,802.6374,831.6484,811.50183,757.1062,0.01666259765625,0.12890625,0.98883056640625,-2.07855224609375,-0.07476806640625,-0.40374755859375,4.225023443223443E8,3.225038827838828E8,2349084.249084249,79.34655,1,1.0,4.0,1.0,1.0,85.00
2025-09-17 18:09:20.793,0.38483584,0.0,0.1533121,1.2402916,0.250099,0.0,-0.08438306,0.62634635,-0.012604452,0.0,0.06683293,0.2519302,0.47967836,0.0,-0.042965434,0.17616232,-0.09696741,0.0,-0.41147384,-0.2134887,694.2491,687.8022,799.41394,738.97437,834.4689,705.9341,0.01666259765625,0.12890625,0.98883056640625,-2.07855224609375,-0.07476806640625,-0.40374755859375,4.225023443223443E8,3.225038827838828E8,2349084.249084249,79.34655,1,1.0,4.0,1.0,1.0,85.00
2025-09-17 18:09:20.793,0.38483584,0.0,0.1533121,1.2402916,0.250099,0.0,-0.08438306,0.62634635,-0.012604452,0.0,0.06683293,0.2519302,0.47967836,0.0,-0.042965434,0.17616232,-0.09696741,0.0,-0.41147384,-0.2134887,751.06226,827.619,799.81683,755.89746,816.7399,682.1612,0.01666259765625,0.12890625,0.98883056640625,-2.07855224609375,-0.07476806640625,-0.40374755859375,4.225023443223443E8,3.225038827838828E8,2349084.249084249,79.34655,1,1.0,4.0,1.0,1.0,85.00
2025-09-17 18:09:20.794,0.38483584,0.0,0.1533121,1.2402916,0.250099,0.0,-0.08438306,0.62634635,-0.012604452,0.0,0.06683293,0.2519302,0.47967836,0.0,-0.042965434,0.17616232,-0.09696741,0.0,-0.41147384,-0.2134887,887.6557,887.25275,808.2784,853.8095,848.97437,583.0403,0.01666259765625,0.12890625,0.98883056640625,-2.07855224609375,-0.07476806640625,-0.40374755859375,4.225023443223443E8,3.225038827838828E8,2349084.249084249,79.34655,1,1.0,4.0,1.0,1.0,85.00
2025-09-17 18:09:20.794,0.38483584,0.0,0.1533121,1.2402916,0.250099,0.0,-0.08438306,0.62634635,-0.012604452,0.0,0.06683293,0.2519302,0.47967836,0.0,-0.042965434,0.17616232,-0.09696741,0.0,-0.41147384,-0.2134887,859.45056,805.8608,813.1135,862.674,830.0366,632.1978,0.01666259765625,0.12890625,0.98883056640625,-2.07855224609375,-0.07476806640625,-0.40374755859375,4.225023443223443E8,3.225038827838828E8,2349084.249084249,79.34655,1,1.0,4.0,1.0,1.0,85.00
2025-09-17 18:09:20.794,0.38483584,0.0,0.1533121,1.2402916,0.250099,0.0,-0.08438306,0.62634635,-0.012604452,0.0,0.06683293,0.2519302,0.47967836,0.0,-0.042965434,0.17616232,-0.09696741,0.0,-0.41147384,-0.2134887,721.6484,759.12085,808.2784,766.77655,747.03296,949.304,0.01666259765625,0.12890625,0.98883056640625,-2.07855224609375,-0.07476806640625,-0.40374755859375,4.225023443223443E8,3.225038827838828E8,2349084.249084249,79.34655,1,1.0,4.0,1.0,1.0,85.00
2025-09-17 18:09:20.795,0.38483584,0.0,0.1533121,1.2402916,0.250099,0.0,-0.08438306,0.62634635,-0.012604452,0.0,0.06683293,0.2519302,0.47967836,0.0,-0.042965434,0.17616232,-0.09696741,0.0,-0.41147384,-0.2134887,718.8278,780.07324,804.2491,737.76556,736.9597,1020.6227,0.01666259765625,0.12890625,0.98883056640625,-2.07855224609375,-0.07476806640625,-0.40374755859375,4.225023443223443E8,3.225038827838828E8,2349084.249084249,79.34655,1,1.0,4.0,1.0,1.0,85.00
2025-09-17 18:09:20.795,0.38483584,0.0,0.1533121,1.2402916,0.250099,0.0,-0.08438306,0.62634635,-0.012604452,0.0,0.06683293,0.2519302,0.47967836,0.0,-0.042965434,0.17616232,-0.09696741,0.0,-0.41147384,-0.2134887,850.18317,862.674,808.2784,827.619,736.55676,852.1978,0.01666259765625,0.12890625,0.98883056640625,-2.07855224609375,-0.07476806640625,-0.40374755859375,4.225023443223443E8,3.225038827838828E8,2349084.249084249,79.34655,1,1.0,4.0,1.0,1.0,85.00
2025-09-17 18:09:20.795,0.38483584,0.0,0.1533121,1.2402916,0.250099,0.0,-0.08438306,0.62634635,-0.012604452,0.0,0.06683293,0.2519302,0.47967836,0.0,-0.042965434,0.17616232,-0.09696741,0.0,-0.41147384,-0.2134887,884.0293,850.58606,811.50183,878.7912,761.53845,754.2857,0.01666259765625,0.12890625,0.98883056640625,-2.07855224609375,-0.07476806640625,-0.40374755859375,4.225023443223443E8,3.225038827838828E8,2349084.249084249,79.34655,1,1.0,4.0,1.0,1.0,85.00
2025-09-17 18:09:20.796,0.38483584,0.0,0.1533121,1.2402916,0.250099,0.0,-0.08438306,0.62634635,-0.012604452,0.0,0.06683293,0.2519302,0.47967836,0.0,-0.042965434,0.17616232,-0.09696741,0.0,-0.41147384,-0.2134887,750.2564,725.6777,805.4579,790.9524,842.9304,746.63007,0.01666259765625,0.12890625,0.98883056640625,-2.07855224609375,-0.07476806640625,-0.40374755859375,4.225023443223443E8,3.225038827838828E8,2349084.249084249,79.34655,1,1.0,4.0,1.0,1.0,85.00
2025-09-17 18:09:20.796,0.38483584,0.0,0.1533121,1.2402916,0.250099,0.0,-0.08438306,0.62634635,-0.012604452,0.0,0.06683293,0.2519302,0.47967836,0.0,-0.042965434,0.17616232,-0.09696741,0.0,-0.41147384,-0.2134887,695.4579,708.7546,799.41394,726.4835,832.4542,672.8938,0.01666259765625,0.12890625,0.98883056640625,-2.07855224609375,-0.07476806640625,-0.40374755859375,4.225023443223443E8,3.225038827838828E8,2349084.249084249,79.34655,1,1.0,4.0,1.0,1.0,85.00
2025-09-17 18:09:20.796,0.38483584,0.0,0.1533121,1.2402916,0.250099,0.0,-0.08438306,0.62634635,-0.012604452,0.0,0.06683293,0.2519302,0.47967836,0.0,-0.042965434,0.17616232,-0.09696741,0.0,-0.41147384,-0.2134887,821.1722,849.3773,802.23444,799.011,796.99634,541.13556,0.01666259765625,0.12890625,0.98883056640625,-2.07855224609375,-0.07476806640625,-0.40374755859375,4.225023443223443E8,3.225038827838828E8,2349084.249084249,79.34655,1,1.0,4.0,1.0,1.0,85.00
2025-09-17 18:09:20.862,0.38483584,0.0,0.1533121,1.2402916,0.250099,0.0,-0.08438306,0.62634635,-0.012604452,0.0,0.06683293,0.2519302,0.47967836,0.0,-0.042965434,0.17616232,-0.09696741,0.0,-0.41147384,-0.2134887,913.8461,926.7399,809.4872,884.43225,833.663,671.685,0.01666259765625,0.12890625,0.98883056640625,-2.07855224609375,-0.07476806640625,-0.40374755859375,4.225023443223443E8,3.22514358974359E8,2359560.4395604394,79.33655,1,1.0,4.0,1.0,1.0,85.00
2025-09-17 18:09:20.863,0.38483584,0.0,0.1533121,1.2402916,0.250099,0.0,-0.08438306,0.62634635,-0.012604452,0.0,0.06683293,0.2519302,0.47967836,0.0,-0.042965434,0.17616232,-0.09696741,0.0,-0.41147384,-0.2134887,805.05493,745.42126,809.89014,822.381,786.9231,718.8278,0.01666259765625,0.12890625,0.98883056640625,-2.07855224609375,-0.07476806640625,-0.40374755859375,4.225023443223443E8,3.22514358974359E8,2359560.4395604394,79.33655,1,1.0,4.0,1.0,1.0,85.00
2025-09-17 18:09:20.863,0.38483584,0.0,0.1533121,1.2402916,0.250099,0.0,-0.08438306,0.62634635,-0.012604452,0.0,0.06683293,0.2519302,0.47967836,0.0,-0.042965434,0.17616232,-0.09696741,0.0,-0.41147384,-0.2134887,706.7399,712.381,806.26373,732.1245,727.28937,793.36993,0.01666259765625,0.12890625,0.98883056640625,-2.07855224609375,-0.07476806640625,-0.40374755859375,4.225023443223443E8,3.22514358974359E8,2359560.4395604394,79.33655,1,1.0,4.0,1.0,1.0,85.00
2025-09-17 18:09:20.863,0.38483584,0.0,0.1533121,1.2402916,0.250099,0.0,-0.08438306,0.62634635,-0.012604452,0.0,0.06683293,0.2519302,0.47967836,0.0,-0.042965434,0.17616232,-0.09696741,0.0,-0.41147384,-0.2134887,790.9524,823.1868,801.8315,774.83514,746.2271,713.9927,0.01666259765625,0.12890625,0.98883056640625,-2.07855224609375,-0.07476806640625,-0.40374755859375,4.225023443223443E8,3.22514358974359E8,2359560.4395604394,79.33655,1,1.0,4.0,1.0,1.0,85.00
2025-09-17 18:09:20.864,0.38483584,0.0,0.1533121,1.2402916,0.250099,0.0,-0.08438306,0.62634635,-0.012604452,0.0,0.06683293,0.2519302,0.47967836,0.0,-0.042965434,0.17616232,-0.09696741,0.0,-0.41147384,-0.2134887,906.5934,919.0842,804.2491,866.7033,759.5238,625.7509,0.01666259765625,0.12890625,0.98883056640625,-2.07855224609375,-0.07476806640625,-0.40374755859375,4.225023443223443E8,3.22514358974359E8,2359560.4395604394,79.33655,1,1.0,4.0,1.0,1.0,85.00
2025-09-17 18:09:20.864,0.38483584,0.0,0.1533121,1.2402916,0.250099,0.0,-0.08438306,0.62634635,-0.012604452,0.0,0.06683293,0.2519302,0.47967836,0.0,-0.042965434,0.17616232,-0.09696741,0.0,-0.41147384,-0.2134887,840.5128,864.68866,805.8608,838.0952,797.3993,1087.5092,0.01666259765625,0.12890625,0.98883056640625,-2.07855224609375,-0.07476806640625,-0.40374755859375,4.225023443223443E8,3.22514358974359E8,2359560.4395604394,79.33655,1,1.0,4.0,1.0,1.0,85.00
2025-09-17 18:09:20.864,0.38483584,0.0,0.1533121,1.2402916,0.250099,0.0,-0.08438306,0.62634635,-0.012604452,0.0,0.06683293,0.2519302,0.47967836,0.0,-0.042965434,0.17616232,-0.09696741,0.0,-0.41147384,-0.2134887,712.7839,693.44324,800.6227,739.3773,824.3956,1187.033,0.01666259765625,0.12890625,0.98883056640625,-2.07855224609375,-0.07476806640625,-0.40374755859375,4.225023443223443E8,3.22514358974359E8,2359560.4395604394,79.33655,1,1.0,4.0,1.0,1.0,85.00
2025-09-17 18:09:20.865,0.38483584,0.0,0.1533121,1.2402916,0.250099,0.0,-0.08438306,0.62634635,-0.012604452,0.0,0.06683293,0.2519302,0.47967836,0.0,-0.042965434,0.17616232,-0.09696741,0.0,-0.41147384,-0.2134887,753.0769,789.34064,795.78754,740.58606,841.7216,1004.5055,0.01666259765625,0.12890625,0.98883056640625,-2.07855224609375,-0.07476806640625,-0.40374755859375,4.225023443223443E8,3.22514358974359E8,2359560.4395604394,79.33655,1,1.0,4.0,1.0,1.0,85.00
2025-09-17 18:09:20.865,0.38483584,0.0,0.1533121,1.2402916,0.250099,0.0,-0.08438306,0.62634635,-0.012604452,0.0,0.06683293,0.2519302,0.47967836,0.0,-0.042965434,0.17616232,-0.09696741,0.0,-0.41147384,-0.2134887,884.0293,934.7985,797.3993,839.707,831.6484,1055.2748,0.01666259765625,0.12890625,0.98883056640625,-2.07855224609375,-0.07476806640625,-0.40374755859375,4.225023443223443E8,3.22514358974359E8,2359560.4395604394,79.33655,1,1.0,4.0,1.0,1.0,85.00
2025-09-17 18:09:20.865,0.38483584,0.0,0.1533121,1.2402916,0.250099,0.0,-0.08438306,0.62634635,-0.012604452,0.0,0.06683293,0.2519302,0.47967836,0.0,-0.042965434,0.17616232,-0.09696741,0.0,-0.41147384,-0.2134887,873.1502,779.67035,802.23444,863.8828,822.381,901.75824,0.01666259765625,0.12890625,0.98883056640625,-2.07855224609375,-0.07476806640625,-0.40374755859375,4.225023443223443E8,3.22514358974359E8,2359560.4395604394,79.33655,1,1.0,4.0,1.0,1.0,85.00
2025-09-17 18:09:20.866,0.38483584,0.0,0.1533121,1.2402916,0.250099,0.0,-0.08438306,0.62634635,-0.012604452,0.0,0.06683293,0.2519302,0.47967836,0.0,-0.042965434,0.17616232,-0.09696741,0.0,-0.41147384,-0.2134887,736.55676,653.95605,799.41394,762.3443,840.5128,747.4359,0.01666259765625,0.12890625,0.98883056640625,-2.07855224609375,-0.07476806640625,-0.40374755859375,4.225023443223443E8,3.22514358974359E8,2359560.4395604394,79.33655,1,1.0,4.0,1.0,1.0,85.00
2025-09-17 18:09:20.866,0.38483584,0.0,0.14707357,0.6077107,0.250099,0.0,-0.11890744,0.32573768,-0.012604452,0.0,0.038343843,0.36322695,0.47967836,0.0,-0.047345623,0.14761455,-0.09696741,0.0,-0.42573404,-0.22107957,722.0513,724.87177,795.38464,722.0513,846.9597,621.7216,0.01666259765625,0.12890625,0.98883056640625,-2.07855224609375,-0.07476806640625,-0.40374755859375,4.225023443223443E8,3.22514358974359E8,2359560.4395604394,79.33655,1,1.0,4.0,1.0,1.0,85.00
2025-09-17 18:09:20.890,0.38483584,0.0,0.14707357,0.6077107,0.250099,0.0,-0.11890744,0.32573768,-0.012604452,0.0,0.038343843,0.36322695,0.47967836,0.0,-0.047345623,0.14761455,-0.09696741,0.0,-0.42573404,-0.22107957,852.1978,911.4286,797.8022,810.696,857.03296,602.381,0.01104736328125,0.12298583984375,0.9764404296875,-0.9869384765625,0.418701171875,-0.10467529296875,4.225023443223443E8,3.22514358974359E8,2359560.4395604394,79.33655,1,1.0,4.0,1.0,1.0,85.00
2025-09-17 18:09:20.890,0.38483584,0.0,0.14707357,0.6077107,0.250099,0.0,-0.11890744,0.32573768,-0.012604452,0.0,0.038343843,0.36322695,0.47967836,0.0,-0.047345623,0.14761455,-0.09696741,0.0,-0.42573404,-0.22107957,896.1172,920.696,805.05493,873.5531,890.07324,786.1172,0.01104736328125,0.12298583984375,0.9764404296875,-0.9869384765625,0.418701171875,-0.10467529296875,4.225023443223443E8,3.22514358974359E8,2359560.4395604394,79.33655,1,1.0,4.0,1.0,1.0,85.00
2025-09-17 18:09:20.891,0.38483584,0.0,0.14707357,0.6077107,0.250099,0.0,-0.11890744,0.32573768,-0.012604452,0.0,0.038343843,0.36322695,0.47967836,0.0,-0.047345623,0.14761455,-0.09696741,0.0,-0.42573404,-0.22107957,766.3736,729.304,807.0696,795.78754,872.74725,743.00366,0.01104736328125,0.12298583984375,0.9764404296875,-0.9869384765625,0.418701171875,-0.10467529296875,4.225023443223443E8,3.22514358974359E8,2359560.4395604394,79.33655,1,1.0,4.0,1.0,1.0,85.00
2025-09-17 18:09:20.891,0.38483584,0.0,0.14707357,0.6077107,0.250099,0.0,-0.11890744,0.32573768,-0.012604452,0.0,0.038343843,0.36322695,0.47967836,0.0,-0.047345623,0.14761455,-0.09696741,0.0,-0.42573404,-0.22107957,692.6374,688.60803,804.65204,727.28937,790.54944,553.6264,0.01104736328125,0.12298583984375,0.9764404296875,-0.9869384765625,0.418701171875,-0.10467529296875,4.225023443223443E8,3.22514358974359E8,2359560.4395604394,79.33655,1,1.0,4.0,1.0,1.0,85.00
2025-09-17 18:09:20.891,0.38483584,0.0,0.14707357,0.6077107,0.250099,0.0,-0.11890744,0.32573768,-0.012604452,0.0,0.038343843,0.36322695,0.47967836,0.0,-0.047345623,0.14761455,-0.09696741,0.0,-0.42573404,-0.22107957,803.44324,891.28204,804.2491,794.57874,823.5897,636.2271,0.01104736328125,0.12298583984375,0.9764404296875,-0.9869384765625,0.418701171875,-0.10467529296875,4.225023443223443E8,3.22514358974359E8,2359560.4395604394,79.33655,1,1.0,4.0,1.0,1.0,85.00
2025-09-17 18:09:20.892,0.38483584,0.0,0.14707357,0.6077107,0.250099,0.0,-0.11890744,0.32573768,-0.012604452,0.0,0.038343843,0.36322695,0.47967836,0.0,-0.047345623,0.14761455,-0.09696741,0.0,-0.42573404,-0.22107957,904.17584,1003.2967,805.05493,877.98535,920.696,1093.956,0.01104736328125,0.12298583984375,0.9764404296875,-0.9869384765625,0.418701171875,-0.10467529296875,4.225023443223443E8,3.22514358974359E8,2359560.4395604394,79.33655,1,1.0,4.0,1.0,1.0,85.00
2025-09-17 18:09:20.892,0.38483584,0.0,0.14707357,0.6077107,0.250099,0.0,-0.11890744,0.32573768,-0.012604452,0.0,0.038343843,0.36322695,0.47967836,0.0,-0.047345623,0.14761455,-0.09696741,0.0,-0.42573404,-0.22107957,805.05493,790.9524,806.6667,823.1868,929.5604,1371.978,0.01104736328125,0.12298583984375,0.9764404296875,-0.9869384765625,0.418701171875,-0.10467529296875,4.225023443223443E8,3.22514358974359E8,2359560.4395604394,79.33655,1,1.0,4.0,1.0,1.0,85.00
2025-09-17 18:09:20.892,0.38483584,0.0,0.14707357,0.6077107,0.250099,0.0,-0.11890744,0.32573768,-0.012604452,0.0,0.038343843,0.36322695,0.47967836,0.0,-0.047345623,0.14761455,-0.09696741,0.0,-0.42573404,-0.22107957,688.20514,591.50183,802.6374,728.0952,820.7692,967.03296,0.01104736328125,0.12298583984375,0.9764404296875,-0.9869384765625,0.418701171875,-0.10467529296875,4.225023443223443E8,3.22514358974359E8,2359560.4395604394,79.33655,1,1.0,4.0,1.0,1.0,85.00
2025-09-17 18:09:20.893,0.38483584,0.0,0.14707357,0.6077107,0.250099,0.0,-0.11890744,0.32573768,-0.012604452,0.0,0.038343843,0.36322695,0.47967836,0.0,-0.047345623,0.14761455,-0.09696741,0.0,-0.42573404,-0.22107957,765.56775,771.2088,799.81683,762.3443,786.1172,585.4579,0.01104736328125,0.12298583984375,0.9764404296875,-0.9869384765625,0.418701171875,-0.10467529296875,4.225023443223443E8,3.22514358974359E8,2359560.4395604394,79.33655,1,1.0,4.0,1.0,1.0,85.00
2025-09-17 18:09:20.893,0.38483584,0.0,0.14707357,0.6077107,0.250099,0.0,-0.11890744,0.32573768,-0.012604452,0.0,0.038343843,0.36322695,0.47967836,0.0,-0.047345623,0.14761455,-0.09696741,0.0,-0.42573404,-0.22107957,892.8938,937.619,808.68134,863.8828,819.9634,712.381,0.01104736328125,0.12298583984375,0.9764404296875,-0.9869384765625,0.418701171875,-0.10467529296875,4.225023443223443E8,3.22514358974359E8,2359560.4395604394,79.33655,1,1.0,4.0,1.0,1.0,85.00
2025-09-17 18:09:20.893,0.38483584,0.0,0.14707357,0.6077107,0.250099,0.0,-0.11890744,0.32573768,-0.012604452,0.0,0.038343843,0.36322695,0.47967836,0.0,-0.047345623,0.14761455,-0.09696741,0.0,-0.42573404,-0.22107957,836.4835,766.77655,811.0989,845.34796,835.2747,753.47986,0.01104736328125,0.12298583984375,0.9764404296875,-0.9869384765625,0.418701171875,-0.10467529296875,4.225023443223443E8,3.22514358974359E8,2359560.4395604394,79.33655,1,1.0,4.0,1.0,1.0,85.00
2025-09-17 18:09:20.894,0.38483584,0.0,0.14707357,0.6077107,0.250099,0.0,-0.11890744,0.32573768,-0.012604452,0.0,0.038343843,0.36322695,0.47967836,0.0,-0.047345623,0.14761455,-0.09696741,0.0,-0.42573404,-0.22107957,703.91943,653.1502,803.0403,743.00366,789.34064,579.81683,0.01104736328125,0.12298583984375,0.9764404296875,-0.9869384765625,0.418701171875,-0.10467529296875,4.225023443223443E8,3.22514358974359E8,2359560.4395604394,79.33655,1,1.0,4.0,1.0,1.0,85.00
2025-09-17 18:09:20.949,0.38483584,0.0,0.14707357,0.6077107,0.250099,0.0,-0.11890744,0.32573768,-0.012604452,0.0,0.038343843,0.36322695,0.47967836,0.0,-0.047345623,0.14761455,-0.09696741,0.0,-0.42573404,-0.22107957,732.1245,799.011,799.011,742.1978,740.58606,511.3187,0.0103759765625,0.11993408203125,0.984375,0.426177978515625,-0.740203857421875,-0.897216796875,4.225023443223443E8,3.2261428571428573E8,2350695.9706959706,79.32712,1,1.0,4.0,1.0,1.0,85.00
2025-09-17 18:09:20.950,0.38483584,0.0,0.14707357,0.6077107,0.250099,0.0,-0.11890744,0.32573768,-0.012604452,0.0,0.038343843,0.36322695,0.47967836,0.0,-0.047345623,0.14761455,-0.09696741,0.0,-0.42573404,-0.22107957,868.71796,920.696,803.0403,840.10986,731.7216,609.6337,0.0103759765625,0.11993408203125,0.984375,0.426177978515625,-0.740203857421875,-0.897216796875,4.225023443223443E8,3.2261428571428573E8,2350695.9706959706,79.32712,1,1.0,4.0,1.0,1.0,85.00
2025-09-17 18:09:20.950,0.38483584,0.0,0.14707357,0.6077107,0.250099,0.0,-0.11890744,0.32573768,-0.012604452,0.0,0.038343843,0.36322695,0.47967836,0.0,-0.047345623,0.14761455,-0.09696741,0.0,-0.42573404,-0.22107957,880.0,867.50916,804.65204,868.71796,841.31866,740.989,0.0103759765625,0.11993408203125,0.984375,0.426177978515625,-0.740203857421875,-0.897216796875,4.225023443223443E8,3.2261428571428573E8,2350695.9706959706,79.32712,1,1.0,4.0,1.0,1.0,85.00
2025-09-17 18:09:20.951,0.38483584,0.0,0.14707357,0.6077107,0.250099,0.0,-0.11890744,0.32573768,-0.012604452,0.0,0.038343843,0.36322695,0.47967836,0.0,-0.047345623,0.14761455,-0.09696741,0.0,-0.42573404,-0.22107957,742.6007,710.3663,797.8022,770.80585,828.022,713.1868,0.0103759765625,0.11993408203125,0.984375,0.426177978515625,-0.740203857421875,-0.897216796875,4.225023443223443E8,3.2261428571428573E8,2350695.9706959706,79.32712,1,1.0,4.0,1.0,1.0,85.00
2025-09-17 18:09:20.951,0.38483584,0.0,0.14707357,0.6077107,0.250099,0.0,-0.11890744,0.32573768,-0.012604452,0.0,0.038343843,0.36322695,0.47967836,0.0,-0.047345623,0.14761455,-0.09696741,0.0,-0.42573404,-0.22107957,705.9341,738.5714,793.36993,720.4396,756.7033,572.5641,0.0103759765625,0.11993408203125,0.984375,0.426177978515625,-0.740203857421875,-0.897216796875,4.225023443223443E8,3.2261428571428573E8,2350695.9706959706,79.32712,1,1.0,4.0,1.0,1.0,85.00
2025-09-17 18:09:20.951,0.38483584,0.0,0.14707357,0.6077107,0.250099,0.0,-0.11890744,0.32573768,-0.012604452,0.0,0.038343843,0.36322695,0.47967836,0.0,-0.047345623,0.14761455,-0.09696741,0.0,-0.42573404,-0.22107957,842.1245,999.2674,799.81683,809.0842,793.7729,914.65204,0.0103759765625,0.11993408203125,0.984375,0.426177978515625,-0.740203857421875,-0.897216796875,4.225023443223443E8,3.2261428571428573E8,2350695.9706959706,79.32712,1,1.0,4.0,1.0,1.0,85.00
2025-09-17 18:09:20.952,0.38483584,0.0,0.14707357,0.6077107,0.250099,0.0,-0.11890744,0.32573768,-0.012604452,0.0,0.038343843,0.36322695,0.47967836,0.0,-0.047345623,0.14761455,-0.09696741,0.0,-0.42573404,-0.22107957,909.81683,947.6923,803.8461,876.77655,857.8388,1312.7472,0.0103759765625,0.11993408203125,0.984375,0.426177978515625,-0.740203857421875,-0.897216796875,4.225023443223443E8,3.2261428571428573E8,2350695.9706959706,79.32712,1,1.0,4.0,1.0,1.0,85.00
2025-09-17 18:09:20.952,0.38483584,0.0,0.14707357,0.6077107,0.250099,0.0,-0.11890744,0.32573768,-0.012604452,0.0,0.038343843,0.36322695,0.47967836,0.0,-0.047345623,0.14761455,-0.09696741,0.0,-0.42573404,-0.22107957,776.4469,623.73627,795.38464,791.3553,844.94507,903.7729,0.0103759765625,0.11993408203125,0.984375,0.426177978515625,-0.740203857421875,-0.897216796875,4.225023443223443E8,3.2261428571428573E8,2350695.9706959706,79.32712,1,1.0,4.0,1.0,1.0,85.00
2025-09-17 18:09:20.952,0.38483584,0.0,0.14707357,0.6077107,0.250099,0.0,-0.11890744,0.32573768,-0.012604452,0.0,0.038343843,0.36322695,0.47967836,0.0,-0.047345623,0.14761455,-0.09696741,0.0,-0.42573404,-0.22107957,693.8461,732.1245,793.7729,716.4103,776.04395,825.6044,0.0103759765625,0.11993408203125,0.984375,0.426177978515625,-0.740203857421875,-0.897216796875,4.225023443223443E8,3.2261428571428573E8,2350695.9706959706,79.32712,1,1.0,4.0,1.0,1.0,85.00
2025-09-17 18:09:20.953,0.38483584,0.0,0.14707357,0.6077107,0.250099,0.0,-0.11890744,0.32573768,-0.012604452,0.0,0.038343843,0.36322695,0.47967836,0.0,-0.047345623,0.14761455,-0.09696741,0.0,-0.42573404,-0.22107957,799.011,861.8681,798.60803,785.31134,751.4652,952.9304,0.0103759765625,0.11993408203125,0.984375,0.426177978515625,-0.740203857421875,-0.897216796875,4.225023443223443E8,3.2261428571428573E8,2350695.9706959706,79.32712,1,1.0,4.0,1.0,1.0,85.00
2025-09-17 18:09:20.953,0.38483584,0.0,0.14707357,0.6077107,0.250099,0.0,-0.11890744,0.32573768,-0.012604452,0.0,0.038343843,0.36322695,0.47967836,0.0,-0.047345623,0.14761455,-0.09696741,0.0,-0.42573404,-0.22107957,904.17584,862.27106,800.6227,875.16486,809.89014,770.40295,0.0103759765625,0.11993408203125,0.984375,0.426177978515625,-0.740203857421875,-0.897216796875,4.225023443223443E8,3.2261428571428573E8,2350695.9706959706,79.32712,1,1.0,4.0,1.0,1.0,85.00
2025-09-17 18:09:20.953,0.38483584,0.0,0.14707357,0.6077107,0.250099,0.0,-0.11890744,0.32573768,-0.012604452,0.0,0.038343843,0.36322695,0.47967836,0.0,-0.047345623,0.14761455,-0.09696741,0.0,-0.42573404,-0.22107957,813.91943,742.6007,799.81683,820.3663,819.15753,631.79486,0.0103759765625,0.11993408203125,0.984375,0.426177978515625,-0.740203857421875,-0.897216796875,4.225023443223443E8,3.2261428571428573E8,2350695.9706959706,79.32712,1,1.0,4.0,1.0,1.0,85.00
2025-09-17 18:09:21.018,0.38483584,0.0,0.14707357,0.6077107,0.250099,0.0,-0.11890744,0.32573768,-0.012604452,0.0,0.038343843,0.36322695,0.47967836,0.0,-0.047345623,0.14761455,-0.09696741,0.0,-0.42573404,-0.22107957,695.8608,695.05493,794.9817,724.0659,772.01465,533.47986,0.0108642578125,0.10400390625,0.99053955078125,-1.12152099609375,-1.084136962890625,0.007476806640625,4.225023443223443E8,3.2261428571428573E8,2350695.9706959706,79.32712,1,1.0,4.0,1.0,1.0,85.00
2025-09-17 18:09:21.018,0.4364081,0.0,0.14302456,0.5884006,0.2539761,0.0,-0.16007896,0.26205227,-0.103172466,0.0,0.003672719,0.42408556,0.4277442,0.0,-0.051125582,0.16072023,-0.11768192,0.0,-0.44162104,-0.2604807,768.7912,849.7802,794.57874,757.9121,798.20514,597.1429,0.0108642578125,0.10400390625,0.99053955078125,-1.12152099609375,-1.084136962890625,0.007476806640625,4.225023443223443E8,3.2261428571428573E8,2350695.9706959706,79.32712,1,1.0,1.0,1.0,1.0,85.00
2025-09-17 18:09:21.020,0.4364081,0.0,0.14302456,0.5884006,0.2539761,0.0,-0.16007896,0.26205227,-0.103172466,0.0,0.003672719,0.42408556,0.4277442,0.0,-0.051125582,0.16072023,-0.11768192,0.0,-0.44162104,-0.2604807,900.9524,944.87177,799.41394,855.42126,846.55676,709.15753,0.0108642578125,0.10400390625,0.99053955078125,-1.12152099609375,-1.084136962890625,0.007476806640625,4.225023443223443E8,3.2261428571428573E8,2350695.9706959706,79.32712,1,1.0,1.0,1.0,1.0,85.00
2025-09-17 18:09:21.020,0.4364081,0.0,0.14302456,0.5884006,0.2539761,0.0,-0.16007896,0.26205227,-0.103172466,0.0,0.003672719,0.42408556,0.4277442,0.0,-0.051125582,0.16072023,-0.11768192,0.0,-0.44162104,-0.2604807,860.65936,813.1135,802.23444,852.6007,900.54944,844.1392,0.0108642578125,0.10400390625,0.99053955078125,-1.12152099609375,-1.084136962890625,0.007476806640625,4.225023443223443E8,3.2261428571428573E8,2350695.9706959706,79.32712,1,1.0,1.0,1.0,1.0,85.00
2025-09-17 18:09:21.021,0.4364081,0.0,0.14302456,0.5884006,0.2539761,0.0,-0.16007896,0.26205227,-0.103172466,0.0,0.003672719,0.42408556,0.4277442,0.0,-0.051125582,0.16072023,-0.11768192,0.0,-0.44162104,-0.2604807,726.4835,676.1172,799.011,748.24176,867.9121,748.6447,0.0108642578125,0.10400390625,0.99053955078125,-1.12152099609375,-1.084136962890625,0.007476806640625,4.225023443223443E8,3.2261428571428573E8,2350695.9706959706,79.32712,1,1.0,1.0,1.0,1.0,85.00
2025-09-17 18:09:21.021,0.4364081,0.0,0.14302456,0.5884006,0.2539761,0.0,-0.16007896,0.26205227,-0.103172466,0.0,0.003672719,0.42408556,0.4277442,0.0,-0.051125582,0.16072023,-0.11768192,0.0,-0.44162104,-0.2604807,736.9597,832.8571,794.9817,729.707,830.84247,922.3077,0.0108642578125,0.10400390625,0.99053955078125,-1.12152099609375,-1.084136962890625,0.007476806640625,4.225023443223443E8,3.2261428571428573E8,2350695.9706959706,79.32712,1,1.0,1.0,1.0,1.0,85.00
2025-09-17 18:09:21.021,0.4364081,0.0,0.14302456,0.5884006,0.2539761,0.0,-0.16007896,0.26205227,-0.103172466,0.0,0.003672719,0.42408556,0.4277442,0.0,-0.051125582,0.16072023,-0.11768192,0.0,-0.44162104,-0.2604807,872.3443,931.1722,799.41394,829.6337,834.0659,1205.9707,0.0108642578125,0.10400390625,0.99053955078125,-1.12152099609375,-1.084136962890625,0.007476806640625,4.225023443223443E8,3.2261428571428573E8,2350695.9706959706,79.32712,1,1.0,1.0,1.0,1.0,85.00
2025-09-17 18:09:21.022,0.4364081,0.0,0.14302456,0.5884006,0.2539761,0.0,-0.16007896,0.26205227,-0.103172466,0.0,0.003672719,0.42408556,0.4277442,0.0,-0.051125582,0.16072023,-0.11768192,0.0,-0.44162104,-0.2604807,893.69965,775.2381,805.05493,871.53845,864.2857,900.54944,0.0108642578125,0.10400390625,0.99053955078125,-1.12152099609375,-1.084136962890625,0.007476806640625,4.225023443223443E8,3.2261428571428573E8,2350695.9706959706,79.32712,1,1.0,1.0,1.0,1.0,85.00
2025-09-17 18:09:21.022,0.4364081,0.0,0.14302456,0.5884006,0.2539761,0.0,-0.16007896,0.26205227,-0.103172466,0.0,0.003672719,0.42408556,0.4277442,0.0,-0.051125582,0.16072023,-0.11768192,0.0,-0.44162104,-0.2604807,752.674,671.685,797.8022,775.64105,904.57874,661.2088,0.0108642578125,0.10400390625,0.99053955078125,-1.12152099609375,-1.084136962890625,0.007476806640625,4.225023443223443E8,3.2261428571428573E8,2350695.9706959706,79.32712,1,1.0,1.0,1.0,1.0,85.00
2025-09-17 18:09:21.022,0.4364081,0.0,0.14302456,0.5884006,0.2539761,0.0,-0.16007896,0.26205227,-0.103172466,0.0,0.003672719,0.42408556,0.4277442,0.0,-0.051125582,0.16072023,-0.11768192,0.0,-0.44162104,-0.2604807,695.05493,724.87177,794.57874,718.8278,866.7033,691.4286,0.0108642578125,0.10400390625,0.99053955078125,-1.12152099609375,-1.084136962890625,0.007476806640625,4.225023443223443E8,3.2261428571428573E8,2350695.9706959706,79.32712,1,1.0,1.0,1.0,1.0,85.00
2025-09-17 18:09:21.022,0.4364081,0.0,0.14302456,0.5884006,0.2539761,0.0,-0.16007896,0.26205227,-0.103172466,0.0,0.003672719,0.42408556,0.4277442,0.0,-0.051125582,0.16072023,-0.11768192,0.0,-0.44162104,-0.2604807,815.9341,870.7326,802.6374,801.4286,820.3663,673.2967,0.0108642578125,0.10400390625,0.99053955078125,-1.12152099609375,-1.084136962890625,0.007476806640625,4.225023443223443E8,3.2261428571428573E8,2350695.9706959706,79.32712,1,1.0,1.0,1.0,1.0,85.00
2025-09-17 18:09:21.023,0.4364081,0.0,0.14302456,0.5884006,0.2539761,0.0,-0.16007896,0.26205227,-0.103172466,0.0,0.003672719,0.42408556,0.4277442,0.0,-0.051125582,0.16072023,-0.11768192,0.0,-0.44162104,-0.2604807,897.72894,896.1172,809.89014,876.3736,836.08057,650.7326,0.0108642578125,0.10400390625,0.99053955078125,-1.12152099609375,-1.084136962890625,0.007476806640625,4.225023443223443E8,3.2261428571428573E8,2350695.9706959706,79.32712,1,1.0,1.0,1.0,1.0,85.00
2025-09-17 18:09:21.025,0.4364081,0.0,0.14302456,0.5884006,0.2539761,0.0,-0.16007896,0.26205227,-0.103172466,0.0,0.003672719,0.42408556,0.4277442,0.0,-0.051125582,0.16072023,-0.11768192,0.0,-0.44162104,-0.2604807,782.8938,786.9231,808.68134,803.0403,839.707,834.87177,0.0152587890625,0.120361328125,0.99688720703125,-2.415008544921875,-0.34393310546875,0.889739990234375,4.225023443223443E8,3.225965567765568E8,2357142.8571428573,79.31824,1,1.0,1.0,1.0,1.0,85.00
2025-09-17 18:09:21.025,0.4364081,0.0,0.14302456,0.5884006,0.2539761,0.0,-0.16007896,0.26205227,-0.103172466,0.0,0.003672719,0.42408556,0.4277442,0.0,-0.051125582,0.16072023,-0.11768192,0.0,-0.44162104,-0.2604807,684.17584,733.3333,803.0403,714.7985,838.9011,962.1978,0.0152587890625,0.120361328125,0.99688720703125,-2.415008544921875,-0.34393310546875,0.889739990234375,4.225023443223443E8,3.225965567765568E8,2357142.8571428573,79.31824,1,1.0,1.0,1.0,1.0,85.00
2025-09-17 18:09:21.026,0.4364081,0.0,0.14302456,0.5884006,0.2539761,0.0,-0.16007896,0.26205227,-0.103172466,0.0,0.003672719,0.42408556,0.4277442,0.0,-0.051125582,0.16072023,-0.11768192,0.0,-0.44162104,-0.2604807,777.6557,814.3223,803.8461,769.19415,812.71063,738.1685,0.0152587890625,0.120361328125,0.99688720703125,-2.415008544921875,-0.34393310546875,0.889739990234375,4.225023443223443E8,3.225965567765568E8,2357142.8571428573,79.31824,1,1.0,1.0,1.0,1.0,85.00
2025-09-17 18:09:21.026,0.4364081,0.0,0.14302456,0.5884006,0.2539761,0.0,-0.16007896,0.26205227,-0.103172466,0.0,0.003672719,0.42408556,0.4277442,0.0,-0.051125582,0.16072023,-0.11768192,0.0,-0.44162104,-0.2604807,894.10254,880.40295,809.89014,863.0769,772.01465,547.5824,0.0152587890625,0.120361328125,0.99688720703125,-2.415008544921875,-0.34393310546875,0.889739990234375,4.225023443223443E8,3.225965567765568E8,2357142.8571428573,79.31824,1,1.0,1.0,1.0,1.0,85.00
2025-09-17 18:09:21.026,0.4364081,0.0,0.14302456,0.5884006,0.2539761,0.0,-0.16007896,0.26205227,-0.103172466,0.0,0.003672719,0.42408556,0.4277442,0.0,-0.051125582,0.16072023,-0.11768192,0.0,-0.44162104,-0.2604807,811.50183,796.5934,805.8608,818.7546,756.7033,666.4469,0.0152587890625,0.120361328125,0.99688720703125,-2.415008544921875,-0.34393310546875,0.889739990234375,4.225023443223443E8,3.225965567765568E8,2357142.8571428573,79.31824,1,1.0,1.0,1.0,1.0,85.00
2025-09-17 18:09:21.027,0.4364081,0.0,0.14302456,0.5884006,0.2539761,0.0,-0.16007896,0.26205227,-0.103172466,0.0,0.003672719,0.42408556,0.4277442,0.0,-0.051125582,0.16072023,-0.11768192,0.0,-0.44162104,-0.2604807,685.78754,756.7033,801.4286,724.4689,759.12085,948.9011,0.0152587890625,0.120361328125,0.99688720703125,-2.415008544921875,-0.34393310546875,0.889739990234375,4.225023443223443E8,3.225965567765568E8,2357142.8571428573,79.31824,1,1.0,1.0,1.0,1.0,85.00
2025-09-17 18:09:21.027,0.4364081,0.0,0.14302456,0.5884006,0.2539761,0.0,-0.16007896,0.26205227,-0.103172466,0.0,0.003672719,0.42408556,0.4277442,0.0,-0.051125582,0.16072023,-0.11768192,0.0,-0.44162104,-0.2604807,739.7802,844.1392,803.0403,748.6447,762.3443,1024.652,0.0152587890625,0.120361328125,0.99688720703125,-2.415008544921875,-0.34393310546875,0.889739990234375,4.225023443223443E8,3.225965567765568E8,2357142.8571428573,79.31824,1,1.0,1.0,1.0,1.0,85.00
2025-09-17 18:09:21.027,0.4364081,0.0,0.14302456,0.5884006,0.2539761,0.0,-0.16007896,0.26205227,-0.103172466,0.0,0.003672719,0.42408556,0.4277442,0.0,-0.051125582,0.16072023,-0.11768192,0.0,-0.44162104,-0.2604807,870.7326,931.978,809.0842,848.97437,864.68866,985.16486,0.0152587890625,0.120361328125,0.99688720703125,-2.415008544921875,-0.34393310546875,0.889739990234375,4.225023443223443E8,3.225965567765568E8,2357142.8571428573,79.31824,1,1.0,1.0,1.0,1.0,85.00
2025-09-17 18:09:21.028,0.4364081,0.0,0.14302456,0.5884006,0.2539761,0.0,-0.16007896,0.26205227,-0.103172466,0.0,0.003672719,0.42408556,0.4277442,0.0,-0.051125582,0.16072023,-0.11768192,0.0,-0.44162104,-0.2604807,850.18317,812.3077,811.0989,855.82416,918.2784,1075.4213,0.0152587890625,0.120361328125,0.99688720703125,-2.415008544921875,-0.34393310546875,0.889739990234375,4.225023443223443E8,3.225965567765568E8,2357142.8571428573,79.31824,1,1.0,1.0,1.0,1.0,85.00
2025-09-17 18:09:21.028,0.4364081,0.0,0.14302456,0.5884006,0.2539761,0.0,-0.16007896,0.26205227,-0.103172466,0.0,0.003672719,0.42408556,0.4277442,0.0,-0.051125582,0.16072023,-0.11768192,0.0,-0.44162104,-0.2604807,714.7985,607.619,803.0403,754.68866,866.7033,901.3553,0.0152587890625,0.120361328125,0.99688720703125,-2.415008544921875,-0.34393310546875,0.889739990234375,4.225023443223443E8,3.225965567765568E8,2357142.8571428573,79.31824,1,1.0,1.0,1.0,1.0,85.00
2025-09-17 18:09:21.028,0.4364081,0.0,0.14302456,0.5884006,0.2539761,0.0,-0.16007896,0.26205227,-0.103172466,0.0,0.003672719,0.42408556,0.4277442,0.0,-0.051125582,0.16072023,-0.11768192,0.0,-0.44162104,-0.2604807,707.5458,715.2015,797.3993,722.4542,855.42126,618.49817,0.0152587890625,0.120361328125,0.99688720703125,-2.415008544921875,-0.34393310546875,0.889739990234375,4.225023443223443E8,3.225965567765568E8,2357142.8571428573,79.31824,1,1.0,1.0,1.0,1.0,85.00
2025-09-17 18:09:21.029,0.4364081,0.0,0.14302456,0.5884006,0.2539761,0.0,-0.16007896,0.26205227,-0.103172466,0.0,0.003672719,0.42408556,0.4277442,0.0,-0.051125582,0.16072023,-0.11768192,0.0,-0.44162104,-0.2604807,843.73627,911.4286,798.20514,818.7546,814.3223,676.1172,0.0152587890625,0.120361328125,0.99688720703125,-2.415008544921875,-0.34393310546875,0.889739990234375,4.225023443223443E8,3.225965567765568E8,2357142.8571428573,79.31824,1,1.0,1.0,1.0,1.0,85.00
2025-09-17 18:09:21.082,0.4364081,0.0,0.14302456,0.5884006,0.2539761,0.0,-0.16007896,0.26205227,-0.103172466,0.0,0.003672719,0.42408556,0.4277442,0.0,-0.051125582,0.16072023,-0.11768192,0.0,-0.44162104,-0.2604807,889.67035,863.8828,805.8608,873.1502,826.0073,716.0073,0.0152587890625,0.120361328125,0.99688720703125,-2.415008544921875,-0.34393310546875,0.889739990234375,4.225023443223443E8,3.225965567765568E8,2357142.8571428573,79.31824,1,1.0,1.0,1.0,1.0,85.00
2025-09-17 18:09:21.083,0.4364081,0.0,0.14302456,0.5884006,0.2539761,0.0,-0.16007896,0.26205227,-0.103172466,0.0,0.003672719,0.42408556,0.4277442,0.0,-0.051125582,0.16072023,-0.11768192,0.0,-0.44162104,-0.2604807,766.3736,717.619,805.8608,788.5348,850.58606,714.7985,0.0152587890625,0.120361328125,0.99688720703125,-2.415008544921875,-0.34393310546875,0.889739990234375,4.225023443223443E8,3.225965567765568E8,2357142.8571428573,79.31824,1,1.0,1.0,1.0,1.0,85.00
2025-09-17 18:09:21.083,0.4364081,0.0,0.14302456,0.5884006,0.2539761,0.0,-0.16007896,0.26205227,-0.103172466,0.0,0.003672719,0.42408556,0.4277442,0.0,-0.051125582,0.16072023,-0.11768192,0.0,-0.44162104,-0.2604807,703.1135,715.2015,796.99634,730.5128,825.2015,680.9524,0.0152587890625,0.120361328125,0.99688720703125,-2.415008544921875,-0.34393310546875,0.889739990234375,4.225023443223443E8,3.225965567765568E8,2357142.8571428573,79.31824,1,1.0,1.0,1.0,1.0,85.00
2025-09-17 18:09:21.084,0.4364081,0.0,0.13386117,0.58014995,0.2539761,0.0,-0.20299481,0.21879607,-0.103172466,0.0,-0.022150757,0.4292123,0.4277442,0.0,-0.049258124,0.16459592,-0.11768192,0.0,-0.4595499,-0.2961923,817.5458,840.9158,800.2198,804.65204,855.82416,535.89746,0.0152587890625,0.120361328125,0.99688720703125,-2.415008544921875,-0.34393310546875,0.889739990234375,4.225023443223443E8,3.225965567765568E8,2357142.8571428573,79.31824,1,1.0,1.0,1.0,1.0,85.00
2025-09-17 18:09:21.085,0.4364081,0.0,0.13386117,0.58014995,0.2539761,0.0,-0.20299481,0.21879607,-0.103172466,0.0,-0.022150757,0.4292123,0.4277442,0.0,-0.049258124,0.16459592,-0.11768192,0.0,-0.4595499,-0.2961923,917.0696,974.2857,809.89014,883.6264,893.69965,906.1905,0.0152587890625,0.120361328125,0.99688720703125,-2.415008544921875,-0.34393310546875,0.889739990234375,4.225023443223443E8,3.225965567765568E8,2357142.8571428573,79.31824,1,1.0,1.0,1.0,1.0,85.00
2025-09-17 18:09:21.085,0.4364081,0.0,0.13386117,0.58014995,0.2539761,0.0,-0.20299481,0.21879607,-0.103172466,0.0,-0.022150757,0.4292123,0.4277442,0.0,-0.049258124,0.16459592,-0.11768192,0.0,-0.4595499,-0.2961923,807.8755,779.67035,804.65204,816.7399,892.49084,1283.3334,0.0152587890625,0.120361328125,0.99688720703125,-2.415008544921875,-0.34393310546875,0.889739990234375,4.225023443223443E8,3.225965567765568E8,2357142.8571428573,79.31824,1,1.0,1.0,1.0,1.0,85.00
2025-09-17 18:09:21.086,0.4364081,0.0,0.13386117,0.58014995,0.2539761,0.0,-0.20299481,0.21879607,-0.103172466,0.0,-0.022150757,0.4292123,0.4277442,0.0,-0.049258124,0.16459592,-0.11768192,0.0,-0.4595499,-0.2961923,695.05493,645.09155,799.011,724.4689,855.82416,1112.4908,0.0152587890625,0.120361328125,0.99688720703125,-2.415008544921875,-0.34393310546875,0.889739990234375,4.225023443223443E8,3.225965567765568E8,2357142.8571428573,79.31824,1,1.0,1.0,1.0,1.0,85.00
2025-09-17 18:09:21.086,0.4364081,0.0,0.13386117,0.58014995,0.2539761,0.0,-0.20299481,0.21879607,-0.103172466,0.0,-0.022150757,0.4292123,0.4277442,0.0,-0.049258124,0.16459592,-0.11768192,0.0,-0.4595499,-0.2961923,782.49084,772.01465,801.4286,770.0,790.14655,761.9414,0.0152587890625,0.120361328125,0.99688720703125,-2.415008544921875,-0.34393310546875,0.889739990234375,4.225023443223443E8,3.225965567765568E8,2357142.8571428573,79.31824,1,1.0,1.0,1.0,1.0,85.00
2025-09-17 18:09:21.086,0.4364081,0.0,0.13386117,0.58014995,0.2539761,0.0,-0.20299481,0.21879607,-0.103172466,0.0,-0.022150757,0.4292123,0.4277442,0.0,-0.049258124,0.16459592,-0.11768192,0.0,-0.4595499,-0.2961923,905.78754,884.0293,805.8608,865.4945,787.72894,566.9231,0.0152587890625,0.120361328125,0.99688720703125,-2.415008544921875,-0.34393310546875,0.889739990234375,4.225023443223443E8,3.225965567765568E8,2357142.8571428573,79.31824,1,1.0,1.0,1.0,1.0,85.00
2025-09-17 18:09:21.087,0.4364081,0.0,0.13386117,0.58014995,0.2539761,0.0,-0.20299481,0.21879607,-0.103172466,0.0,-0.022150757,0.4292123,0.4277442,0.0,-0.049258124,0.16459592,-0.11768192,0.0,-0.4595499,-0.2961923,844.1392,775.2381,804.2491,835.6777,787.326,649.12085,0.0152587890625,0.120361328125,0.99688720703125,-2.415008544921875,-0.34393310546875,0.889739990234375,4.225023443223443E8,3.225965567765568E8,2357142.8571428573,79.31824,1,1.0,1.0,1.0,1.0,85.00
2025-09-17 18:09:21.087,0.4364081,0.0,0.13386117,0.58014995,0.2539761,0.0,-0.20299481,0.21879607,-0.103172466,0.0,-0.022150757,0.4292123,0.4277442,0.0,-0.049258124,0.16459592,-0.11768192,0.0,-0.4595499,-0.2961923,715.6044,657.98535,797.8022,732.9304,759.5238,595.5311,0.0152587890625,0.120361328125,0.99688720703125,-2.415008544921875,-0.34393310546875,0.889739990234375,4.225023443223443E8,3.225965567765568E8,2357142.8571428573,79.31824,1,1.0,1.0,1.0,1.0,85.00
2025-09-17 18:09:21.087,0.4364081,0.0,0.13386117,0.58014995,0.2539761,0.0,-0.20299481,0.21879607,-0.103172466,0.0,-0.022150757,0.4292123,0.4277442,0.0,-0.049258124,0.16459592,-0.11768192,0.0,-0.4595499,-0.2961923,762.3443,803.8461,801.8315,746.2271,734.94507,491.97803,0.0152587890625,0.120361328125,0.99688720703125,-2.415008544921875,-0.34393310546875,0.889739990234375,4.225023443223443E8,3.225965567765568E8,2357142.8571428573,79.31824,1,1.0,1.0,1.0,1.0,85.00
2025-09-17 18:09:21.116,0.4364081,0.0,0.13386117,0.58014995,0.2539761,0.0,-0.20299481,0.21879607,-0.103172466,0.0,-0.022150757,0.4292123,0.4277442,0.0,-0.049258124,0.16459592,-0.11768192,0.0,-0.4595499,-0.2961923,911.02563,961.79486,807.8755,857.03296,783.69965,606.4103,0.0068359375,0.0958251953125,0.98541259765625,-1.2261962890625,1.136474609375,-0.246734619140625,4.225023443223443E8,3.226860073260073E8,2360366.3003663,79.30989,1,1.0,1.0,1.0,1.0,85.00
2025-09-17 18:09:21.116,0.4364081,0.0,0.13386117,0.58014995,0.2539761,0.0,-0.20299481,0.21879607,-0.103172466,0.0,-0.022150757,0.4292123,0.4277442,0.0,-0.049258124,0.16459592,-0.11768192,0.0,-0.4595499,-0.2961923,898.5348,861.06226,808.68134,878.3883,843.73627,798.60803,0.0068359375,0.0958251953125,0.98541259765625,-1.2261962890625,1.136474609375,-0.246734619140625,4.225023443223443E8,3.226860073260073E8,2360366.3003663,79.30989,1,1.0,1.0,1.0,1.0,85.00
2025-09-17 18:09:21.117,0.4364081,0.0,0.13386117,0.58014995,0.2539761,0.0,-0.20299481,0.21879607,-0.103172466,0.0,-0.022150757,0.4292123,0.4277442,0.0,-0.049258124,0.16459592,-0.11768192,0.0,-0.4595499,-0.2961923,743.8095,690.2198,802.6374,780.87915,852.6007,790.14655,0.0068359375,0.0958251953125,0.98541259765625,-1.2261962890625,1.136474609375,-0.246734619140625,4.225023443223443E8,3.226860073260073E8,2360366.3003663,79.30989,1,1.0,1.0,1.0,1.0,85.00
2025-09-17 18:09:21.117,0.4364081,0.0,0.13386117,0.58014995,0.2539761,0.0,-0.20299481,0.21879607,-0.103172466,0.0,-0.022150757,0.4292123,0.4277442,0.0,-0.049258124,0.16459592,-0.11768192,0.0,-0.4595499,-0.2961923,703.5165,696.26373,799.41394,739.3773,788.93774,519.3773,0.0068359375,0.0958251953125,0.98541259765625,-1.2261962890625,1.136474609375,-0.246734619140625,4.225023443223443E8,3.226860073260073E8,2360366.3003663,79.30989,1,1.0,1.0,1.0,1.0,85.00
2025-09-17 18:09:21.117,0.4364081,0.0,0.13386117,0.58014995,0.2539761,0.0,-0.20299481,0.21879607,-0.103172466,0.0,-0.022150757,0.4292123,0.4277442,0.0,-0.049258124,0.16459592,-0.11768192,0.0,-0.4595499,-0.2961923,829.6337,932.381,807.0696,833.2601,763.95605,624.94507,0.0068359375,0.0958251953125,0.98541259765625,-1.2261962890625,1.136474609375,-0.246734619140625,4.225023443223443E8,3.226860073260073E8,2360366.3003663,79.30989,1,1.0,1.0,1.0,1.0,85.00
2025-09-17 18:09:21.118,0.4364081,0.0,0.13386117,0.58014995,0.2539761,0.0,-0.20299481,0.21879607,-0.103172466,0.0,-0.022150757,0.4292123,0.4277442,0.0,-0.049258124,0.16459592,-0.11768192,0.0,-0.4595499,-0.2961923,891.28204,992.4176,816.7399,903.36993,839.707,1167.6923,0.0068359375,0.0958251953125,0.98541259765625,-1.2261962890625,1.136474609375,-0.246734619140625,4.225023443223443E8,3.226860073260073E8,2360366.3003663,79.30989,1,1.0,1.0,1.0,1.0,85.00
2025-09-17 18:09:21.118,0.4364081,0.0,0.13386117,0.58014995,0.2539761,0.0,-0.20299481,0.21879607,-0.103172466,0.0,-0.022150757,0.4292123,0.4277442,0.0,-0.049258124,0.16459592,-0.11768192,0.0,-0.4595499,-0.2961923,760.32965,698.68134,814.7253,813.1135,868.71796,1205.9707,0.0068359375,0.0958251953125,0.98541259765625,-1.2261962890625,1.136474609375,-0.246734619140625,4.225023443223443E8,3.226860073260073E8,2360366.3003663,79.30989,1,1.0,1.0,1.0,1.0,85.00
2025-09-17 18:09:21.118,0.4364081,0.0,0.13386117,0.58014995,0.2539761,0.0,-0.20299481,0.21879607,-0.103172466,0.0,-0.022150757,0.4292123,0.4277442,0.0,-0.049258124,0.16459592,-0.11768192,0.0,-0.4595499,-0.2961923,683.7729,630.18317,805.05493,729.707,776.04395,882.4176,0.0068359375,0.0958251953125,0.98541259765625,-1.2261962890625,1.136474609375,-0.246734619140625,4.225023443223443E8,3.226860073260073E8,2360366.3003663,79.30989,1,1.0,1.0,1.0,1.0,85.00
2025-09-17 18:09:21.119,0.4364081,0.0,0.13386117,0.58014995,0.2539761,0.0,-0.20299481,0.21879607,-0.103172466,0.0,-0.022150757,0.4292123,0.4277442,0.0,-0.049258124,0.16459592,-0.11768192,0.0,-0.4595499,-0.2961923,804.65204,855.42126,801.8315,796.99634,772.8205,842.1245,0.0068359375,0.0958251953125,0.98541259765625,-1.2261962890625,1.136474609375,-0.246734619140625,4.225023443223443E8,3.226860073260073E8,2360366.3003663,79.30989,1,1.0,1.0,1.0,1.0,85.00
2025-09-17 18:09:21.119,0.4364081,0.0,0.13386117,0.58014995,0.2539761,0.0,-0.20299481,0.21879607,-0.103172466,0.0,-0.022150757,0.4292123,0.4277442,0.0,-0.049258124,0.16459592,-0.11768192,0.0,-0.4595499,-0.2961923,907.3993,877.1795,801.02563,877.1795,783.69965,748.6447,0.0068359375,0.0958251953125,0.98541259765625,-1.2261962890625,1.136474609375,-0.246734619140625,4.225023443223443E8,3.226860073260073E8,2360366.3003663,79.30989,1,1.0,1.0,1.0,1.0,85.00
2025-09-17 18:09:21.120,0.4364081,0.0,0.13386117,0.58014995,0.2539761,0.0,-0.20299481,0.21879607,-0.103172466,0.0,-0.022150757,0.4292123,0.4277442,0.0,-0.049258124,0.16459592,-0.11768192,0.0,-0.4595499,-0.2961923,803.44324,737.76556,799.41394,814.3223,816.7399,686.5934,0.0068359375,0.0958251953125,0.98541259765625,-1.2261962890625,1.136474609375,-0.246734619140625,4.225023443223443E8,3.226860073260073E8,2360366.3003663,79.30989,1,1.0,1.0,1.0,1.0,85.00
2025-09-17 18:09:21.120,0.4364081,0.0,0.13386117,0.58014995,0.2539761,0.0,-0.20299481,0.21879607,-0.103172466,0.0,-0.022150757,0.4292123,0.4277442,0.0,-0.049258124,0.16459592,-0.11768192,0.0,-0.4595499,-0.2961923,687.3993,676.52014,790.9524,714.7985,835.6777,585.4579,0.0068359375,0.0958251953125,0.98541259765625,-1.2261962890625,1.136474609375,-0.246734619140625,4.225023443223443E8,3.226860073260073E8,2360366.3003663,79.30989,1,1.0,1.0,1.0,1.0,85.00
2025-09-17 18:09:21.176,0.4364081,0.0,0.13386117,0.58014995,0.2539761,0.0,-0.20299481,0.21879607,-0.103172466,0.0,-0.022150757,0.4292123,0.4277442,0.0,-0.049258124,0.16459592,-0.11768192,0.0,-0.4595499,-0.2961923,763.5531,851.39197,785.31134,753.0769,783.69965,506.0806,0.0028076171875,0.10040283203125,0.98797607421875,0.201873779296875,0.710296630859375,0.366363525390625,4.225023443223443E8,3.226860073260073E8,2360366.3003663,79.30989,1,1.0,1.0,1.0,1.0,85.00
2025-09-17 18:09:21.177,0.4364081,0.0,0.13386117,0.58014995,0.2539761,0.0,-0.20299481,0.21879607,-0.103172466,0.0,-0.022150757,0.4292123,0.4277442,0.0,-0.049258124,0.16459592,-0.11768192,0.0,-0.4595499,-0.2961923,890.87915,968.6447,792.5641,855.0183,765.9707,691.8315,0.0028076171875,0.10040283203125,0.98797607421875,0.201873779296875,0.710296630859375,0.366363525390625,4.225023443223443E8,3.226860073260073E8,2360366.3003663,79.30989,1,1.0,1.0,1.0,1.0,85.00
2025-09-17 18:09:21.177,0.4364081,0.0,0.13386117,0.58014995,0.2539761,0.0,-0.20299481,0.21879607,-0.103172466,0.0,-0.022150757,0.4292123,0.4277442,0.0,-0.049258124,0.16459592,-0.11768192,0.0,-0.4595499,-0.2961923,842.9304,811.0989,795.38464,840.5128,862.674,828.8278,0.0028076171875,0.10040283203125,0.98797607421875,0.201873779296875,0.710296630859375,0.366363525390625,4.225023443223443E8,3.226860073260073E8,2360366.3003663,79.30989,1,1.0,1.0,1.0,1.0,85.00
2025-09-17 18:09:21.177,0.4364081,0.0,0.13386117,0.58014995,0.2539761,0.0,-0.20299481,0.21879607,-0.103172466,0.0,-0.022150757,0.4292123,0.4277442,0.0,-0.049258124,0.16459592,-0.11768192,0.0,-0.4595499,-0.2961923,705.9341,677.326,790.9524,738.5714,881.6117,717.2161,0.0028076171875,0.10040283203125,0.98797607421875,0.201873779296875,0.710296630859375,0.366363525390625,4.225023443223443E8,3.226860073260073E8,2360366.3003663,79.30989,1,1.0,1.0,1.0,1.0,85.00
2025-09-17 18:09:21.178,0.4364081,0.0,0.13386117,0.58014995,0.2539761,0.0,-0.20299481,0.21879607,-0.103172466,0.0,-0.022150757,0.4292123,0.4277442,0.0,-0.049258124,0.16459592,-0.11768192,0.0,-0.4595499,-0.2961923,730.9158,838.9011,791.3553,736.1539,818.7546,696.26373,0.0028076171875,0.10040283203125,0.98797607421875,0.201873779296875,0.710296630859375,0.366363525390625,4.225023443223443E8,3.226860073260073E8,2360366.3003663,79.30989,1,1.0,1.0,1.0,1.0,85.00
2025-09-17 18:09:21.178,0.4364081,0.0,0.11934526,0.5959501,0.2539761,0.0,-0.24200009,0.10853063,-0.103172466,0.0,0.039121293,0.37332547,0.4277442,0.0,-0.04316473,0.14777876,-0.11768192,0.0,-0.48176563,-0.33655918,875.9707,996.8498,795.38464,838.9011,804.2491,1000.87915,0.0028076171875,0.10040283203125,0.98797607421875,0.201873779296875,0.710296630859375,0.366363525390625,4.225023443223443E8,3.226860073260073E8,2360366.3003663,79.30989,1,1.0,1.0,1.0,1.0,85.00
2025-09-17 18:09:21.179,0.4364081,0.0,0.11934526,0.5959501,0.2539761,0.0,-0.24200009,0.10853063,-0.103172466,0.0,0.039121293,0.37332547,0.4277442,0.0,-0.04316473,0.14777876,-0.11768192,0.0,-0.48176563,-0.33655918,879.19415,880.0,801.8315,865.89746,821.1722,1224.1025,0.0028076171875,0.10040283203125,0.98797607421875,0.201873779296875,0.710296630859375,0.366363525390625,4.225023443223443E8,3.226860073260073E8,2360366.3003663,79.30989,1,1.0,1.0,1.0,1.0,85.00
2025-09-17 18:09:21.180,0.4364081,0.0,0.11934526,0.5959501,0.2539761,0.0,-0.24200009,0.10853063,-0.103172466,0.0,0.039121293,0.37332547,0.4277442,0.0,-0.04316473,0.14777876,-0.11768192,0.0,-0.48176563,-0.33655918,735.7509,647.1062,798.20514,766.3736,796.1905,979.92676,0.0028076171875,0.10040283203125,0.98797607421875,0.201873779296875,0.710296630859375,0.366363525390625,4.225023443223443E8,3.226860073260073E8,2360366.3003663,79.30989,1,1.0,1.0,1.0,1.0,85.00
2025-09-17 18:09:21.180,0.4364081,0.0,0.11934526,0.5959501,0.2539761,0.0,-0.24200009,0.10853063,-0.103172466,0.0,0.039121293,0.37332547,0.4277442,0.0,-0.04316473,0.14777876,-0.11768192,0.0,-0.48176563,-0.33655918,697.0696,695.4579,792.5641,714.3956,769.59705,642.27106,0.0028076171875,0.10040283203125,0.98797607421875,0.201873779296875,0.710296630859375,0.366363525390625,4.225023443223443E8,3.226860073260073E8,2360366.3003663,79.30989,1,1.0,1.0,1.0,1.0,85.00
2025-09-17 18:09:21.180,0.4364081,0.0,0.11934526,0.5959501,0.2539761,0.0,-0.24200009,0.10853063,-0.103172466,0.0,0.039121293,0.37332547,0.4277442,0.0,-0.04316473,0.14777876,-0.11768192,0.0,-0.48176563,-0.33655918,828.8278,899.34064,798.60803,808.2784,765.56775,623.73627,0.0028076171875,0.10040283203125,0.98797607421875,0.201873779296875,0.710296630859375,0.366363525390625,4.225023443223443E8,3.226860073260073E8,2360366.3003663,79.30989,1,1.0,1.0,1.0,1.0,85.00
2025-09-17 18:09:21.181,0.4364081,0.0,0.11934526,0.5959501,0.2539761,0.0,-0.24200009,0.10853063,-0.103172466,0.0,0.039121293,0.37332547,0.4277442,0.0,-0.04316473,0.14777876,-0.11768192,0.0,-0.48176563,-0.33655918,900.9524,924.7253,801.02563,877.5824,821.978,752.674,0.0028076171875,0.10040283203125,0.98797607421875,0.201873779296875,0.710296630859375,0.366363525390625,4.225023443223443E8,3.226860073260073E8,2360366.3003663,79.30989,1,1.0,1.0,1.0,1.0,85.00
2025-09-17 18:09:21.181,0.4364081,0.0,0.11934526,0.5959501,0.2539761,0.0,-0.24200009,0.10853063,-0.103172466,0.0,0.039121293,0.37332547,0.4277442,0.0,-0.04316473,0.14777876,-0.11768192,0.0,-0.48176563,-0.33655918,774.43225,731.31866,798.20514,794.17584,851.39197,871.13556,0.0028076171875,0.10040283203125,0.98797607421875,0.201873779296875,0.710296630859375,0.366363525390625,4.225023443223443E8,3.226860073260073E8,2360366.3003663,79.30989,1,1.0,1.0,1.0,1.0,85.00
2025-09-17 18:09:21.217,0.4364081,0.0,0.11934526,0.5959501,0.2539761,0.0,-0.24200009,0.10853063,-0.103172466,0.0,0.039121293,0.37332547,0.4277442,0.0,-0.04316473,0.14777876,-0.11768192,0.0,-0.48176563,-0.33655918,680.9524,639.0476,790.54944,712.381,776.04395,615.6777,-0.0035400390625,0.11199951171875,0.9825439453125,0.351409912109375,1.218719482421875,0.04486083984375,4.225023443223443E8,3.228044688644689E8,2370036.63003663,79.39954,1,1.0,1.0,1.0,1.0,85.00
2025-09-17 18:09:21.218,0.4364081,0.0,0.11934526,0.5959501,0.2539761,0.0,-0.24200009,0.10853063,-0.103172466,0.0,0.039121293,0.37332547,0.4277442,0.0,-0.04316473,0.14777876,-0.11768192,0.0,-0.48176563,-0.33655918,785.7143,895.7143,790.54944,773.22345,798.20514,611.6484,-0.0035400390625,0.11199951171875,0.9825439453125,0.351409912109375,1.218719482421875,0.04486083984375,4.225023443223443E8,3.228044688644689E8,2370036.63003663,79.39954,1,1.0,1.0,1.0,1.0,85.00
2025-09-17 18:09:21.219,0.4364081,0.0,0.11934526,0.5959501,0.2539761,0.0,-0.24200009,0.10853063,-0.103172466,0.0,0.039121293,0.37332547,0.4277442,0.0,-0.04316473,0.14777876,-0.11768192,0.0,-0.48176563,-0.33655918,901.75824,984.35895,801.4286,864.68866,853.8095,829.2308,-0.0035400390625,0.11199951171875,0.9825439453125,0.351409912109375,1.218719482421875,0.04486083984375,4.225023443223443E8,3.228044688644689E8,2370036.63003663,79.39954,1,1.0,1.0,1.0,1.0,85.00
2025-09-17 18:09:21.219,0.4364081,0.0,0.11934526,0.5959501,0.2539761,0.0,-0.24200009,0.10853063,-0.103172466,0.0,0.039121293,0.37332547,0.4277442,0.0,-0.04316473,0.14777876,-0.11768192,0.0,-0.48176563,-0.33655918,810.293,727.28937,800.2198,818.3516,861.06226,699.89014,-0.0035400390625,0.11199951171875,0.9825439453125,0.351409912109375,1.218719482421875,0.04486083984375,4.225023443223443E8,3.228044688644689E8,2370036.63003663,79.39954,1,1.0,1.0,1.0,1.0,85.00
2025-09-17 18:09:21.220,0.4364081,0.0,0.11934526,0.5959501,0.2539761,0.0,-0.24200009,0.10853063,-0.103172466,0.0,0.039121293,0.37332547,0.4277442,0.0,-0.04316473,0.14777876,-0.11768192,0.0,-0.48176563,-0.33655918,685.38464,666.8498,793.36993,723.2601,819.9634,574.9817,-0.0035400390625,0.11199951171875,0.9825439453125,0.351409912109375,1.218719482421875,0.04486083984375,4.225023443223443E8,3.228044688644689E8,2370036.63003663,79.39954,1,1.0,1.0,1.0,1.0,85.00
2025-09-17 18:09:21.220,0.4364081,0.0,0.11934526,0.5959501,0.2539761,0.0,-0.24200009,0.10853063,-0.103172466,0.0,0.039121293,0.37332547,0.4277442,0.0,-0.04316473,0.14777876,-0.11768192,0.0,-0.48176563,-0.33655918,754.68866,931.5751,793.36993,754.68866,786.1172,931.1722,-0.0035400390625,0.11199951171875,0.9825439453125,0.351409912109375,1.218719482421875,0.04486083984375,4.225023443223443E8,3.228044688644689E8,2370036.63003663,79.39954,1,1.0,1.0,1.0,1.0,85.00
2025-09-17 18:09:21.221,0.4364081,0.0,0.11934526,0.5959501,0.2539761,0.0,-0.24200009,0.10853063,-0.103172466,0.0,0.039121293,0.37332547,0.4277442,0.0,-0.04316473,0.14777876,-0.11768192,0.0,-0.48176563,-0.33655918,898.1319,959.7802,801.8315,857.03296,819.9634,1195.8975,-0.0035400390625,0.11199951171875,0.9825439453125,0.351409912109375,1.218719482421875,0.04486083984375,4.225023443223443E8,3.228044688644689E8,2370036.63003663,79.39954,1,1.0,1.0,1.0,1.0,85.00
2025-09-17 18:09:21.221,0.4364081,0.0,0.11934526,0.5959501,0.2539761,0.0,-0.24200009,0.10853063,-0.103172466,0.0,0.039121293,0.37332547,0.4277442,0.0,-0.04316473,0.14777876,-0.11768192,0.0,-0.48176563,-0.33655918,861.4652,745.0183,805.05493,850.989,846.55676,963.00366,-0.0035400390625,0.11199951171875,0.9825439453125,0.351409912109375,1.218719482421875,0.04486083984375,4.225023443223443E8,3.228044688644689E8,2370036.63003663,79.39954,1,1.0,1.0,1.0,1.0,85.00
2025-09-17 18:09:21.222,0.4364081,0.0,0.11934526,0.5959501,0.2539761,0.0,-0.24200009,0.10853063,-0.103172466,0.0,0.039121293,0.37332547,0.4277442,0.0,-0.04316473,0.14777876,-0.11768192,0.0,-0.48176563,-0.33655918,720.84247,707.5458,800.6227,749.85345,827.619,975.4945,-0.0035400390625,0.11199951171875,0.9825439453125,0.351409912109375,1.218719482421875,0.04486083984375,4.225023443223443E8,3.228044688644689E8,2370036.63003663,79.39954,1,1.0,1.0,1.0,1.0,85.00
2025-09-17 18:09:21.222,0.4364081,0.0,0.11934526,0.5959501,0.2539761,0.0,-0.24200009,0.10853063,-0.103172466,0.0,0.039121293,0.37332547,0.4277442,0.0,-0.04316473,0.14777876,-0.11768192,0.0,-0.48176563,-0.33655918,728.9011,731.7216,797.3993,731.7216,829.6337,840.10986,-0.0035400390625,0.11199951171875,0.9825439453125,0.351409912109375,1.218719482421875,0.04486083984375,4.225023443223443E8,3.228044688644689E8,2370036.63003663,79.39954,1,1.0,1.0,1.0,1.0,85.00
2025-09-17 18:09:21.223,0.4364081,0.0,0.11934526,0.5959501,0.2539761,0.0,-0.24200009,0.10853063,-0.103172466,0.0,0.039121293,0.37332547,0.4277442,0.0,-0.04316473,0.14777876,-0.11768192,0.0,-0.48176563,-0.33655918,863.8828,872.74725,798.20514,830.0366,799.011,630.989,-0.0035400390625,0.11199951171875,0.9825439453125,0.351409912109375,1.218719482421875,0.04486083984375,4.225023443223443E8,3.228044688644689E8,2370036.63003663,79.39954,1,1.0,1.0,1.0,1.0,85.00
2025-09-17 18:09:21.223,0.4364081,0.0,0.11934526,0.5959501,0.2539761,0.0,-0.24200009,0.10853063,-0.103172466,0.0,0.039121293,0.37332547,0.4277442,0.0,-0.04316473,0.14777876,-0.11768192,0.0,-0.48176563,-0.33655918,893.69965,872.3443,802.23444,879.19415,871.53845,709.15753,-0.0035400390625,0.11199951171875,0.9825439453125,0.351409912109375,1.218719482421875,0.04486083984375,4.225023443223443E8,3.228044688644689E8,2370036.63003663,79.39954,1,1.0,1.0,1.0,1.0,85.00
2025-09-17 18:09:21.266,0.4364081,0.0,0.11934526,0.5959501,0.2539761,0.0,-0.24200009,0.10853063,-0.103172466,0.0,0.039121293,0.37332547,0.4277442,0.0,-0.04316473,0.14777876,-0.11768192,0.0,-0.48176563,-0.33655918,758.315,716.8132,799.81683,784.10254,894.5055,718.8278,-0.0035400390625,0.11199951171875,0.9825439453125,0.351409912109375,1.218719482421875,0.04486083984375,4.225023443223443E8,3.228044688644689E8,2370036.63003663,79.39954,1,1.0,1.0,1.0,1.0,85.00
2025-09-17 18:09:21.266,0.4364081,0.0,0.11934526,0.5959501,0.2539761,0.0,-0.24200009,0.10853063,-0.103172466,0.0,0.039121293,0.37332547,0.4277442,0.0,-0.04316473,0.14777876,-0.11768192,0.0,-0.48176563,-0.33655918,695.4579,726.4835,790.9524,717.2161,825.2015,665.64105,-0.0035400390625,0.11199951171875,0.9825439453125,0.351409912109375,1.218719482421875,0.04486083984375,4.225023443223443E8,3.228044688644689E8,2370036.63003663,79.39954,1,1.0,1.0,1.0,1.0,85.00
2025-09-17 18:09:21.267,0.4364081,0.0,0.11934526,0.5959501,0.2539761,0.0,-0.24200009,0.10853063,-0.103172466,0.0,0.039121293,0.37332547,0.4277442,0.0,-0.04316473,0.14777876,-0.11768192,0.0,-0.48176563,-0.33655918,819.5604,938.8278,792.5641,799.81683,818.3516,915.8608,-0.0035400390625,0.11199951171875,0.9825439453125,0.351409912109375,1.218719482421875,0.04486083984375,4.225023443223443E8,3.228044688644689E8,2370036.63003663,79.39954,1,1.0,1.0,1.0,1.0,85.00
2025-09-17 18:09:21.267,0.4364081,0.0,0.11934526,0.5959501,0.2539761,0.0,-0.24200009,0.10853063,-0.103172466,0.0,0.039121293,0.37332547,0.4277442,0.0,-0.04316473,0.14777876,-0.11768192,0.0,-0.48176563,-0.33655918,909.81683,909.81683,800.6227,884.43225,836.08057,1075.0183,-0.0035400390625,0.11199951171875,0.9825439453125,0.351409912109375,1.218719482421875,0.04486083984375,4.225023443223443E8,3.228044688644689E8,2370036.63003663,79.39954,1,1.0,1.0,1.0,1.0,85.00
2025-09-17 18:09:21.268,0.4364081,0.0,0.11934526,0.5959501,0.2539761,0.0,-0.24200009,0.10853063,-0.103172466,0.0,0.039121293,0.37332547,0.4277442,0.0,-0.04316473,0.14777876,-0.11768192,0.0,-0.48176563,-0.33655918,788.5348,686.5934,800.2198,813.91943,872.3443,803.0403,-0.0035400390625,0.11199951171875,0.9825439453125,0.351409912109375,1.218719482421875,0.04486083984375,4.225023443223443E8,3.228044688644689E8,2370036.63003663,79.39954,1,1.0,1.0,1.0,1.0,85.00
2025-09-17 18:09:21.268,0.4364081,0.0,0.11934526,0.5959501,0.2539761,0.0,-0.24200009,0.10853063,-0.103172466,0.0,0.039121293,0.37332547,0.4277442,0.0,-0.04316473,0.14777876,-0.11768192,0.0,-0.48176563,-0.33655918,686.5934,743.4066,796.1905,726.8865,856.2271,909.81683,-0.0035400390625,0.11199951171875,0.9825439453125,0.351409912109375,1.218719482421875,0.04486083984375,4.225023443223443E8,3.228044688644689E8,2370036.63003663,79.39954,1,1.0,1.0,1.0,1.0,85.00
2025-09-17 18:09:21.268,0.4364081,0.0,0.11934526,0.5959501,0.2539761,0.0,-0.24200009,0.10853063,-0.103172466,0.0,0.039121293,0.37332547,0.4277442,0.0,-0.04316473,0.14777876,-0.11768192,0.0,-0.48176563,-0.33655918,788.5348,901.3553,802.23444,786.1172,786.1172,1203.956,-0.0035400390625,0.11199951171875,0.9825439453125,0.351409912109375,1.218719482421875,0.04486083984375,4.225023443223443E8,3.228044688644689E8,2370036.63003663,79.39954,1,1.0,1.0,1.0,1.0,85.00
2025-09-17 18:09:21.268,0.4364081,0.0,0.10632937,0.57537,0.2539761,0.0,-0.27133563,-0.0013821229,-0.103172466,0.0,0.11470109,0.34805745,0.4277442,0.0,-0.040248446,0.14039926,-0.11768192,0.0,-0.50944215,-0.38064888,902.5641,862.27106,809.4872,880.80585,823.9927,928.7546,-0.0035400390625,0.11199951171875,0.9825439453125,0.351409912109375,1.218719482421875,0.04486083984375,4.225023443223443E8,3.228044688644689E8,2370036.63003663,79.39954,1,1.0,1.0,1.0,1.0,85.00
2025-09-17 18:09:21.270,0.4364081,0.0,0.10632937,0.57537,0.2539761,0.0,-0.27133563,-0.0013821229,-0.103172466,0.0,0.11470109,0.34805745,0.4277442,0.0,-0.040248446,0.14039926,-0.11768192,0.0,-0.50944215,-0.38064888,820.3663,732.52747,807.0696,838.0952,906.99634,692.23444,-0.0035400390625,0.11199951171875,0.9825439453125,0.351409912109375,1.218719482421875,0.04486083984375,4.225023443223443E8,3.228044688644689E8,2370036.63003663,79.39954,1,1.0,1.0,1.0,1.0,85.00
2025-09-17 18:09:21.270,0.4364081,0.0,0.10632937,0.57537,0.2539761,0.0,-0.27133563,-0.0013821229,-0.103172466,0.0,0.11470109,0.34805745,0.4277442,0.0,-0.040248446,0.14039926,-0.11768192,0.0,-0.50944215,-0.38064888,695.05493,695.05493,799.41394,737.76556,852.1978,695.05493,-0.0035400390625,0.11199951171875,0.9825439453125,0.351409912109375,1.218719482421875,0.04486083984375,4.225023443223443E8,3.228044688644689E8,2370036.63003663,79.39954,1,1.0,1.0,1.0,1.0,85.00
2025-09-17 18:09:21.271,0.4364081,0.0,0.10632937,0.57537,0.2539761,0.0,-0.27133563,-0.0013821229,-0.103172466,0.0,0.11470109,0.34805745,0.4277442,0.0,-0.040248446,0.14039926,-0.11768192,0.0,-0.50944215,-0.38064888,742.6007,812.3077,797.8022,752.674,787.72894,720.84247,-0.0035400390625,0.11199951171875,0.9825439453125,0.351409912109375,1.218719482421875,0.04486083984375,4.225023443223443E8,3.228044688644689E8,2370036.63003663,79.39954,1,1.0,1.0,1.0,1.0,85.00
2025-09-17 18:09:21.271,0.4364081,0.0,0.10632937,0.57537,0.2539761,0.0,-0.27133563,-0.0013821229,-0.103172466,0.0,0.11470109,0.34805745,0.4277442,0.0,-0.040248446,0.14039926,-0.11768192,0.0,-0.50944215,-0.38064888,869.92676,867.50916,803.8461,852.6007,814.3223,704.3223,-0.0035400390625,0.11199951171875,0.9825439453125,0.351409912109375,1.218719482421875,0.04486083984375,4.225023443223443E8,3.228044688644689E8,2370036.63003663,79.39954,1,1.0,1.0,1.0,1.0,85.00
2025-09-17 18:09:21.322,0.4364081,0.0,0.10632937,0.57537,0.2539761,0.0,-0.27133563,-0.0013821229,-0.103172466,0.0,0.11470109,0.34805745,0.4277442,0.0,-0.040248446,0.14039926,-0.11768192,0.0,-0.50944215,-0.38064888,848.5714,805.8608,804.2491,859.0476,840.9158,649.92676,-0.00421142578125,0.1121826171875,0.9981689453125,0.904693603515625,0.246734619140625,-0.560760498046875,4.225023443223443E8,3.2254095238095236E8,2357948.717948718,79.483955,1,1.0,1.0,1.0,1.0,85.00
2025-09-17 18:09:21.323,0.4364081,0.0,0.10632937,0.57537,0.2539761,0.0,-0.27133563,-0.0013821229,-0.103172466,0.0,0.11470109,0.34805745,0.4277442,0.0,-0.040248446,0.14039926,-0.11768192,0.0,-0.50944215,-0.38064888,715.2015,718.022,799.41394,758.315,818.3516,700.696,-0.00421142578125,0.1121826171875,0.9981689453125,0.904693603515625,0.246734619140625,-0.560760498046875,4.225023443223443E8,3.2254095238095236E8,2357948.717948718,79.483955,1,1.0,1.0,1.0,1.0,85.00
2025-09-17 18:09:21.323,0.4364081,0.0,0.10632937,0.57537,0.2539761,0.0,-0.27133563,-0.0013821229,-0.103172466,0.0,0.11470109,0.34805745,0.4277442,0.0,-0.040248446,0.14039926,-0.11768192,0.0,-0.50944215,-0.38064888,707.9487,760.7326,796.5934,731.31866,792.5641,648.71796,-0.00421142578125,0.1121826171875,0.9981689453125,0.904693603515625,0.246734619140625,-0.560760498046875,4.225023443223443E8,3.2254095238095236E8,2357948.717948718,79.483955,1,1.0,1.0,1.0,1.0,85.00
2025-09-17 18:09:21.323,0.4364081,0.0,0.10632937,0.57537,0.2539761,0.0,-0.27133563,-0.0013821229,-0.103172466,0.0,0.11470109,0.34805745,0.4277442,0.0,-0.040248446,0.14039926,-0.11768192,0.0,-0.50944215,-0.38064888,839.304,904.17584,796.99634,823.9927,793.36993,621.31866,-0.00421142578125,0.1121826171875,0.9981689453125,0.904693603515625,0.246734619140625,-0.560760498046875,4.225023443223443E8,3.2254095238095236E8,2357948.717948718,79.483955,1,1.0,1.0,1.0,1.0,85.00
2025-09-17 18:09:21.324,0.4364081,0.0,0.10632937,0.57537,0.2539761,0.0,-0.27133563,-0.0013821229,-0.103172466,0.0,0.11470109,0.34805745,0.4277442,0.0,-0.040248446,0.14039926,-0.11768192,0.0,-0.50944215,-0.38064888,886.04395,905.78754,805.05493,880.0,843.3333,734.94507,-0.00421142578125,0.1121826171875,0.9981689453125,0.904693603515625,0.246734619140625,-0.560760498046875,4.225023443223443E8,3.2254095238095236E8,2357948.717948718,79.483955,1,1.0,1.0,1.0,1.0,85.00
2025-09-17 18:09:21.324,0.4364081,0.0,0.10632937,0.57537,0.2539761,0.0,-0.27133563,-0.0013821229,-0.103172466,0.0,0.11470109,0.34805745,0.4277442,0.0,-0.040248446,0.14039926,-0.11768192,0.0,-0.50944215,-0.38064888,759.5238,783.2967,806.6667,792.96704,809.0842,1002.8938,-0.00421142578125,0.1121826171875,0.9981689453125,0.904693603515625,0.246734619140625,-0.560760498046875,4.225023443223443E8,3.2254095238095236E8,2357948.717948718,79.483955,1,1.0,1.0,1.0,1.0,85.00
2025-09-17 18:09:21.324,0.4364081,0.0,0.10632937,0.57537,0.2539761,0.0,-0.27133563,-0.0013821229,-0.103172466,0.0,0.11470109,0.34805745,0.4277442,0.0,-0.040248446,0.14039926,-0.11768192,0.0,-0.50944215,-0.38064888,687.3993,734.94507,798.20514,717.2161,730.5128,1149.5604,-0.00421142578125,0.1121826171875,0.9981689453125,0.904693603515625,0.246734619140625,-0.560760498046875,4.225023443223443E8,3.2254095238095236E8,2357948.717948718,79.483955,1,1.0,1.0,1.0,1.0,85.00
2025-09-17 18:09:21.325,0.4364081,0.0,0.10632937,0.57537,0.2539761,0.0,-0.27133563,-0.0013821229,-0.103172466,0.0,0.11470109,0.34805745,0.4277442,0.0,-0.040248446,0.14039926,-0.11768192,0.0,-0.50944215,-0.38064888,803.0403,845.34796,798.60803,789.34064,761.13556,1113.6996,-0.00421142578125,0.1121826171875,0.9981689453125,0.904693603515625,0.246734619140625,-0.560760498046875,4.225023443223443E8,3.2254095238095236E8,2357948.717948718,79.483955,1,1.0,1.0,1.0,1.0,85.00
2025-09-17 18:09:21.325,0.4364081,0.0,0.10632937,0.57537,0.2539761,0.0,-0.27133563,-0.0013821229,-0.103172466,0.0,0.11470109,0.34805745,0.4277442,0.0,-0.040248446,0.14039926,-0.11768192,0.0,-0.50944215,-0.38064888,900.9524,881.6117,803.0403,875.56775,797.8022,1080.2565,-0.00421142578125,0.1121826171875,0.9981689453125,0.904693603515625,0.246734619140625,-0.560760498046875,4.225023443223443E8,3.2254095238095236E8,2357948.717948718,79.483955,1,1.0,1.0,1.0,1.0,85.00
2025-09-17 18:09:21.325,0.4364081,0.0,0.10632937,0.57537,0.2539761,0.0,-0.27133563,-0.0013821229,-0.103172466,0.0,0.11470109,0.34805745,0.4277442,0.0,-0.040248446,0.14039926,-0.11768192,0.0,-0.50944215,-0.38064888,793.36993,673.69965,803.44324,812.71063,813.5165,859.85345,-0.00421142578125,0.1121826171875,0.9981689453125,0.904693603515625,0.246734619140625,-0.560760498046875,4.225023443223443E8,3.2254095238095236E8,2357948.717948718,79.483955,1,1.0,1.0,1.0,1.0,85.00
2025-09-17 18:09:21.326,0.4364081,0.0,0.10632937,0.57537,0.2539761,0.0,-0.27133563,-0.0013821229,-0.103172466,0.0,0.11470109,0.34805745,0.4277442,0.0,-0.040248446,0.14039926,-0.11768192,0.0,-0.50944215,-0.38064888,691.02563,659.59705,799.81683,724.87177,821.1722,651.53845,-0.00421142578125,0.1121826171875,0.9981689453125,0.904693603515625,0.246734619140625,-0.560760498046875,4.225023443223443E8,3.2254095238095236E8,2357948.717948718,79.483955,1,1.0,1.0,1.0,1.0,85.00
2025-09-17 18:09:21.326,0.4364081,0.0,0.10632937,0.57537,0.2539761,0.0,-0.27133563,-0.0013821229,-0.103172466,0.0,0.11470109,0.34805745,0.4277442,0.0,-0.040248446,0.14039926,-0.11768192,0.0,-0.50944215,-0.38064888,769.59705,834.87177,796.99634,768.3883,742.1978,562.8938,-0.00421142578125,0.1121826171875,0.9981689453125,0.904693603515625,0.246734619140625,-0.560760498046875,4.225023443223443E8,3.2254095238095236E8,2357948.717948718,79.483955,1,1.0,1.0,1.0,1.0,85.00
2025-09-17 18:09:21.393,0.4364081,0.0,0.10632937,0.57537,0.2539761,0.0,-0.27133563,-0.0013821229,-0.103172466,0.0,0.11470109,0.34805745,0.4277442,0.0,-0.040248446,0.14039926,-0.11768192,0.0,-0.50944215,-0.38064888,890.4762,943.2601,799.41394,867.50916,815.12823,693.8461,-0.0152587890625,0.114990234375,0.98504638671875,0.07476806640625,1.8243408203125,1.4056396484375,4.225023443223443E8,3.2254095238095236E8,2357948.717948718,79.483955,1,1.0,1.0,1.0,1.0,85.00
2025-09-17 18:09:21.394,0.4364081,0.0,0.10632937,0.57537,0.2539761,0.0,-0.27133563,-0.0013821229,-0.103172466,0.0,0.11470109,0.34805745,0.4277442,0.0,-0.040248446,0.14039926,-0.11768192,0.0,-0.50944215,-0.38064888,834.4689,773.6264,804.65204,843.73627,918.2784,811.9048,-0.0152587890625,0.114990234375,0.98504638671875,0.07476806640625,1.8243408203125,1.4056396484375,4.225023443223443E8,3.2254095238095236E8,2357948.717948718,79.483955,1,1.0,1.0,1.0,1.0,85.00
2025-09-17 18:09:21.395,0.4364081,0.0,0.10632937,0.57537,0.2539761,0.0,-0.27133563,-0.0013821229,-0.103172466,0.0,0.11470109,0.34805745,0.4277442,0.0,-0.040248446,0.14039926,-0.11768192,0.0,-0.50944215,-0.38064888,703.5165,643.47986,803.44324,741.79486,801.4286,677.72894,-0.0152587890625,0.114990234375,0.98504638671875,0.07476806640625,1.8243408203125,1.4056396484375,4.225023443223443E8,3.2254095238095236E8,2357948.717948718,79.483955,1,1.0,1.0,1.0,1.0,85.00
2025-09-17 18:09:21.395,0.4364081,0.0,0.10632937,0.57537,0.2539761,0.0,-0.27133563,-0.0013821229,-0.103172466,0.0,0.11470109,0.34805745,0.4277442,0.0,-0.040248446,0.14039926,-0.11768192,0.0,-0.50944215,-0.38064888,736.9597,750.65936,799.81683,743.00366,736.9597,400.1099,-0.0152587890625,0.114990234375,0.98504638671875,0.07476806640625,1.8243408203125,1.4056396484375,4.225023443223443E8,3.2254095238095236E8,2357948.717948718,79.483955,1,1.0,1.0,1.0,1.0,85.00
2025-09-17 18:09:21.396,0.4364081,0.0,0.10632937,0.57537,0.2539761,0.0,-0.27133563,-0.0013821229,-0.103172466,0.0,0.11470109,0.34805745,0.4277442,0.0,-0.040248446,0.14039926,-0.11768192,0.0,-0.50944215,-0.38064888,876.77655,959.7802,805.4579,846.9597,749.45056,501.64835,-0.0152587890625,0.114990234375,0.98504638671875,0.07476806640625,1.8243408203125,1.4056396484375,4.225023443223443E8,3.2254095238095236E8,2357948.717948718,79.483955,1,1.0,1.0,1.0,1.0,85.00
2025-09-17 18:09:21.396,0.4364081,0.0,0.10632937,0.57537,0.2539761,0.0,-0.27133563,-0.0013821229,-0.103172466,0.0,0.11470109,0.34805745,0.4277442,0.0,-0.040248446,0.14039926,-0.11768192,0.0,-0.50944215,-0.38064888,876.3736,931.978,811.9048,874.35895,750.2564,1019.41394,-0.0152587890625,0.114990234375,0.98504638671875,0.07476806640625,1.8243408203125,1.4056396484375,4.225023443223443E8,3.2254095238095236E8,2357948.717948718,79.483955,1,1.0,1.0,1.0,1.0,85.00
2025-09-17 18:09:21.397,0.4364081,0.0,0.10632937,0.57537,0.2539761,0.0,-0.27133563,-0.0013821229,-0.103172466,0.0,0.11470109,0.34805745,0.4277442,0.0,-0.040248446,0.14039926,-0.11768192,0.0,-0.50944215,-0.38064888,738.5714,701.9048,807.8755,775.64105,756.7033,1162.4542,-0.0152587890625,0.114990234375,0.98504638671875,0.07476806640625,1.8243408203125,1.4056396484375,4.225023443223443E8,3.2254095238095236E8,2357948.717948718,79.483955,1,1.0,1.0,1.0,1.0,85.00
2025-09-17 18:09:21.397,0.4364081,0.0,0.10632937,0.57537,0.2539761,0.0,-0.27133563,-0.0013821229,-0.103172466,0.0,0.11470109,0.34805745,0.4277442,0.0,-0.040248446,0.14039926,-0.11768192,0.0,-0.50944215,-0.38064888,715.2015,667.6557,800.6227,731.7216,796.99634,770.40295,-0.0152587890625,0.114990234375,0.98504638671875,0.07476806640625,1.8243408203125,1.4056396484375,4.225023443223443E8,3.2254095238095236E8,2357948.717948718,79.483955,1,1.0,1.0,1.0,1.0,85.00
2025-09-17 18:09:21.398,0.4364081,0.0,0.10632937,0.57537,0.2539761,0.0,-0.27133563,-0.0013821229,-0.103172466,0.0,0.11470109,0.34805745,0.4277442,0.0,-0.040248446,0.14039926,-0.11768192,0.0,-0.50944215,-0.38064888,845.34796,876.3736,799.81683,822.381,809.0842,579.81683,-0.0152587890625,0.114990234375,0.98504638671875,0.07476806640625,1.8243408203125,1.4056396484375,4.225023443223443E8,3.2254095238095236E8,2357948.717948718,79.483955,1,1.0,1.0,1.0,1.0,85.00
2025-09-17 18:09:21.398,0.4364081,0.0,0.096708186,0.42860916,0.2539761,0.0,-0.2868243,-0.07020418,-0.103172466,0.0,0.17888345,0.31457448,0.4277442,0.0,-0.04312459,0.16558106,-0.11768192,0.0,-0.5379631,-0.4305992,906.5934,925.5311,806.26373,888.86444,837.28937,931.978,-0.0152587890625,0.114990234375,0.98504638671875,0.07476806640625,1.8243408203125,1.4056396484375,4.225023443223443E8,3.2254095238095236E8,2357948.717948718,79.483955,1,1.0,1.0,1.0,1.0,85.00
2025-09-17 18:09:21.401,0.4364081,0.0,0.096708186,0.42860916,0.2539761,0.0,-0.2868243,-0.07020418,-0.103172466,0.0,0.17888345,0.31457448,0.4277442,0.0,-0.04312459,0.16558106,-0.11768192,0.0,-0.5379631,-0.4305992,778.86444,688.20514,806.6667,802.23444,882.01465,864.2857,-0.0152587890625,0.114990234375,0.98504638671875,0.07476806640625,1.8243408203125,1.4056396484375,4.225023443223443E8,3.2254095238095236E8,2357948.717948718,79.483955,1,1.0,1.0,1.0,1.0,85.00
2025-09-17 18:09:21.401,0.4364081,0.0,0.096708186,0.42860916,0.2539761,0.0,-0.2868243,-0.07020418,-0.103172466,0.0,0.17888345,0.31457448,0.4277442,0.0,-0.04312459,0.16558106,-0.11768192,0.0,-0.5379631,-0.4305992,697.47253,704.3223,801.8315,722.8571,856.2271,731.7216,-0.0152587890625,0.114990234375,0.98504638671875,0.07476806640625,1.8243408203125,1.4056396484375,4.225023443223443E8,3.2254095238095236E8,2357948.717948718,79.483955,1,1.0,1.0,1.0,1.0,85.00
2025-09-17 18:09:21.442,0.4364081,0.0,0.096708186,0.42860916,0.2539761,0.0,-0.2868243,-0.07020418,-0.103172466,0.0,0.17888345,0.31457448,0.4277442,0.0,-0.04312459,0.16558106,-0.11768192,0.0,-0.5379631,-0.4305992,811.9048,877.1795,801.8315,788.5348,871.9414,792.96704,-0.02349853515625,0.1287841796875,0.99090576171875,0.710296630859375,1.263580322265625,1.757049560546875,4.225023443223443E8,3.223967032967033E8,2371648.3516483516,79.56342,1,1.0,1.0,1.0,1.0,85.00
2025-09-17 18:09:21.442,0.4364081,0.0,0.096708186,0.42860916,0.2539761,0.0,-0.2868243,-0.07020418,-0.103172466,0.0,0.17888345,0.31457448,0.4277442,0.0,-0.04312459,0.16558106,-0.11768192,0.0,-0.5379631,-0.4305992,916.6667,909.011,805.4579,880.80585,892.0879,830.0366,-0.02349853515625,0.1287841796875,0.99090576171875,0.710296630859375,1.263580322265625,1.757049560546875,4.225023443223443E8,3.223967032967033E8,2371648.3516483516,79.56342,1,1.0,1.0,1.0,1.0,85.00
2025-09-17 18:09:21.443,0.4364081,0.0,0.096708186,0.42860916,0.2539761,0.0,-0.2868243,-0.07020418,-0.103172466,0.0,0.17888345,0.31457448,0.4277442,0.0,-0.04312459,0.16558106,-0.11768192,0.0,-0.5379631,-0.4305992,817.1429,731.7216,803.44324,827.2161,828.8278,812.71063,-0.02349853515625,0.1287841796875,0.99090576171875,0.710296630859375,1.263580322265625,1.757049560546875,4.225023443223443E8,3.223967032967033E8,2371648.3516483516,79.56342,1,1.0,1.0,1.0,1.0,85.00
2025-09-17 18:09:21.443,0.4364081,0.0,0.096708186,0.42860916,0.2539761,0.0,-0.2868243,-0.07020418,-0.103172466,0.0,0.17888345,0.31457448,0.4277442,0.0,-0.04312459,0.16558106,-0.11768192,0.0,-0.5379631,-0.4305992,702.71063,645.89746,803.44324,734.94507,788.1319,576.99634,-0.02349853515625,0.1287841796875,0.99090576171875,0.710296630859375,1.263580322265625,1.757049560546875,4.225023443223443E8,3.223967032967033E8,2371648.3516483516,79.56342,1,1.0,1.0,1.0,1.0,85.00
2025-09-17 18:09:21.444,0.4364081,0.0,0.096708186,0.42860916,0.2539761,0.0,-0.2868243,-0.07020418,-0.103172466,0.0,0.17888345,0.31457448,0.4277442,0.0,-0.04312459,0.16558106,-0.11768192,0.0,-0.5379631,-0.4305992,774.0293,883.22345,805.8608,773.22345,813.5165,635.42126,-0.02349853515625,0.1287841796875,0.99090576171875,0.710296630859375,1.263580322265625,1.757049560546875,4.225023443223443E8,3.223967032967033E8,2371648.3516483516,79.56342,1,1.0,1.0,1.0,1.0,85.00
2025-09-17 18:09:21.444,0.4364081,0.0,0.096708186,0.42860916,0.2539761,0.0,-0.2868243,-0.07020418,-0.103172466,0.0,0.17888345,0.31457448,0.4277442,0.0,-0.04312459,0.16558106,-0.11768192,0.0,-0.5379631,-0.4305992,902.96704,1050.0366,810.293,877.1795,845.7509,1195.8975,-0.02349853515625,0.1287841796875,0.99090576171875,0.710296630859375,1.263580322265625,1.757049560546875,4.225023443223443E8,3.223967032967033E8,2371648.3516483516,79.56342,1,1.0,1.0,1.0,1.0,85.00
2025-09-17 18:09:21.444,0.4364081,0.0,0.096708186,0.42860916,0.2539761,0.0,-0.2868243,-0.07020418,-0.103172466,0.0,0.17888345,0.31457448,0.4277442,0.0,-0.04312459,0.16558106,-0.11768192,0.0,-0.5379631,-0.4305992,852.1978,776.8498,812.3077,865.89746,852.6007,1327.2528,-0.02349853515625,0.1287841796875,0.99090576171875,0.710296630859375,1.263580322265625,1.757049560546875,4.225023443223443E8,3.223967032967033E8,2371648.3516483516,79.56342,1,1.0,1.0,1.0,1.0,85.00
2025-09-17 18:09:21.444,0.4364081,0.0,0.096708186,0.42860916,0.2539761,0.0,-0.2868243,-0.07020418,-0.103172466,0.0,0.17888345,0.31457448,0.4277442,0.0,-0.04312459,0.16558106,-0.11768192,0.0,-0.5379631,-0.4305992,710.7692,592.3077,803.44324,759.92676,851.79486,880.40295,-0.02349853515625,0.1287841796875,0.99090576171875,0.710296630859375,1.263580322265625,1.757049560546875,4.225023443223443E8,3.223967032967033E8,2371648.3516483516,79.56342,1,1.0,1.0,1.0,1.0,85.00
2025-09-17 18:09:21.445,0.4364081,0.0,0.096708186,0.42860916,0.2539761,0.0,-0.2868243,-0.07020418,-0.103172466,0.0,0.17888345,0.31457448,0.4277442,0.0,-0.04312459,0.16558106,-0.11768192,0.0,-0.5379631,-0.4305992,730.5128,801.02563,799.81683,750.65936,830.4396,872.3443,-0.02349853515625,0.1287841796875,0.99090576171875,0.710296630859375,1.263580322265625,1.757049560546875,4.225023443223443E8,3.223967032967033E8,2371648.3516483516,79.56342,1,1.0,1.0,1.0,1.0,85.00
2025-09-17 18:09:21.445,0.4364081,0.0,0.096708186,0.42860916,0.2539761,0.0,-0.2868243,-0.07020418,-0.103172466,0.0,0.17888345,0.31457448,0.4277442,0.0,-0.04312459,0.16558106,-0.11768192,0.0,-0.5379631,-0.4305992,870.7326,888.0586,803.0403,848.5714,816.7399,895.31134,-0.02349853515625,0.1287841796875,0.99090576171875,0.710296630859375,1.263580322265625,1.757049560546875,4.225023443223443E8,3.223967032967033E8,2371648.3516483516,79.56342,1,1.0,1.0,1.0,1.0,85.00
2025-09-17 18:09:21.445,0.4364081,0.0,0.096708186,0.42860916,0.2539761,0.0,-0.2868243,-0.07020418,-0.103172466,0.0,0.17888345,0.31457448,0.4277442,0.0,-0.04312459,0.16558106,-0.11768192,0.0,-0.5379631,-0.4305992,881.6117,796.1905,806.6667,879.19415,809.89014,710.7692,-0.02349853515625,0.1287841796875,0.99090576171875,0.710296630859375,1.263580322265625,1.757049560546875,4.225023443223443E8,3.223967032967033E8,2371648.3516483516,79.56342,1,1.0,1.0,1.0,1.0,85.00
2025-09-17 18:09:21.446,0.4364081,0.0,0.096708186,0.42860916,0.2539761,0.0,-0.2868243,-0.07020418,-0.103172466,0.0,0.17888345,0.31457448,0.4277442,0.0,-0.04312459,0.16558106,-0.11768192,0.0,-0.5379631,-0.4305992,738.5714,677.72894,805.4579,781.685,827.2161,590.696,-0.02349853515625,0.1287841796875,0.99090576171875,0.710296630859375,1.263580322265625,1.757049560546875,4.225023443223443E8,3.223967032967033E8,2371648.3516483516,79.56342,1,1.0,1.0,1.0,1.0,85.00
2025-09-17 18:09:21.489,0.4364081,0.0,0.096708186,0.42860916,0.2539761,0.0,-0.2868243,-0.07020418,-0.103172466,0.0,0.17888345,0.31457448,0.4277442,0.0,-0.04312459,0.16558106,-0.11768192,0.0,-0.5379631,-0.4305992,699.0842,792.1612,800.2198,729.707,782.49084,696.6667,-0.0216064453125,0.131103515625,0.98394775390625,-0.43365478515625,2.444915771484375,0.530853271484375,4.225023443223443E8,3.223967032967033E8,2371648.3516483516,79.56342,1,1.0,1.0,1.0,1.0,85.00
2025-09-17 18:09:21.490,0.4364081,0.0,0.096708186,0.42860916,0.2539761,0.0,-0.2868243,-0.07020418,-0.103172466,0.0,0.17888345,0.31457448,0.4277442,0.0,-0.04312459,0.16558106,-0.11768192,0.0,-0.5379631,-0.4305992,831.6484,935.6044,801.4286,818.3516,821.5751,959.3773,-0.0216064453125,0.131103515625,0.98394775390625,-0.43365478515625,2.444915771484375,0.530853271484375,4.225023443223443E8,3.223967032967033E8,2371648.3516483516,79.56342,1,1.0,1.0,1.0,1.0,85.00
2025-09-17 18:09:21.490,0.4364081,0.0,0.096708186,0.42860916,0.2539761,0.0,-0.2868243,-0.07020418,-0.103172466,0.0,0.17888345,0.31457448,0.4277442,0.0,-0.04312459,0.16558106,-0.11768192,0.0,-0.5379631,-0.4305992,901.3553,863.0769,805.05493,889.2674,911.02563,878.3883,-0.0216064453125,0.131103515625,0.98394775390625,-0.43365478515625,2.444915771484375,0.530853271484375,4.225023443223443E8,3.223967032967033E8,2371648.3516483516,79.56342,1,1.0,1.0,1.0,1.0,85.00
2025-09-17 18:09:21.490,0.4364081,0.0,0.096708186,0.42860916,0.2539761,0.0,-0.2868243,-0.07020418,-0.103172466,0.0,0.17888345,0.31457448,0.4277442,0.0,-0.04312459,0.16558106,-0.11768192,0.0,-0.5379631,-0.4305992,776.04395,688.20514,803.0403,809.89014,914.65204,744.21246,-0.0216064453125,0.131103515625,0.98394775390625,-0.43365478515625,2.444915771484375,0.530853271484375,4.225023443223443E8,3.223967032967033E8,2371648.3516483516,79.56342,1,1.0,1.0,1.0,1.0,85.00
2025-09-17 18:09:21.491,0.4364081,0.0,0.096708186,0.42860916,0.2539761,0.0,-0.2868243,-0.07020418,-0.103172466,0.0,0.17888345,0.31457448,0.4277442,0.0,-0.04312459,0.16558106,-0.11768192,0.0,-0.5379631,-0.4305992,689.011,689.81683,799.41394,725.6777,856.2271,647.1062,-0.0216064453125,0.131103515625,0.98394775390625,-0.43365478515625,2.444915771484375,0.530853271484375,4.225023443223443E8,3.223967032967033E8,2371648.3516483516,79.56342,1,1.0,1.0,1.0,1.0,85.00
2025-09-17 18:09:21.491,0.4364081,0.0,0.096708186,0.42860916,0.2539761,0.0,-0.2868243,-0.07020418,-0.103172466,0.0,0.17888345,0.31457448,0.4277442,0.0,-0.04312459,0.16558106,-0.11768192,0.0,-0.5379631,-0.4305992,799.41394,940.4396,805.05493,792.1612,837.6923,952.1245,-0.0216064453125,0.131103515625,0.98394775390625,-0.43365478515625,2.444915771484375,0.530853271484375,4.225023443223443E8,3.223967032967033E8,2371648.3516483516,79.56342,1,1.0,1.0,1.0,1.0,85.00
2025-09-17 18:09:21.492,0.4364081,0.0,0.096708186,0.42860916,0.2539761,0.0,-0.2868243,-0.07020418,-0.103172466,0.0,0.17888345,0.31457448,0.4277442,0.0,-0.04312459,0.16558106,-0.11768192,0.0,-0.5379631,-0.4305992,916.6667,939.2308,813.91943,886.8498,833.663,1168.0952,-0.0216064453125,0.131103515625,0.98394775390625,-0.43365478515625,2.444915771484375,0.530853271484375,4.225023443223443E8,3.223967032967033E8,2371648.3516483516,79.56342,1,1.0,1.0,1.0,1.0,85.00
2025-09-17 18:09:21.492,0.4364081,0.0,0.096708186,0.42860916,0.2539761,0.0,-0.2868243,-0.07020418,-0.103172466,0.0,0.17888345,0.31457448,0.4277442,0.0,-0.04312459,0.16558106,-0.11768192,0.0,-0.5379631,-0.4305992,828.8278,703.5165,809.4872,839.304,846.1539,983.95605,-0.0216064453125,0.131103515625,0.98394775390625,-0.43365478515625,2.444915771484375,0.530853271484375,4.225023443223443E8,3.223967032967033E8,2371648.3516483516,79.56342,1,1.0,1.0,1.0,1.0,85.00
2025-09-17 18:09:21.492,0.4364081,0.0,0.096708186,0.42860916,0.2539761,0.0,-0.2868243,-0.07020418,-0.103172466,0.0,0.17888345,0.31457448,0.4277442,0.0,-0.04312459,0.16558106,-0.11768192,0.0,-0.5379631,-0.4305992,701.9048,619.707,800.2198,737.3626,800.2198,637.03296,-0.0216064453125,0.131103515625,0.98394775390625,-0.43365478515625,2.444915771484375,0.530853271484375,4.225023443223443E8,3.223967032967033E8,2371648.3516483516,79.56342,1,1.0,1.0,1.0,1.0,85.00
2025-09-17 18:09:21.493,0.4364081,0.0,0.096708186,0.42860916,0.2539761,0.0,-0.2868243,-0.07020418,-0.103172466,0.0,0.17888345,0.31457448,0.4277442,0.0,-0.04312459,0.16558106,-0.11768192,0.0,-0.5379631,-0.4305992,760.32965,809.0842,799.81683,763.1502,755.89746,523.8095,-0.0216064453125,0.131103515625,0.98394775390625,-0.43365478515625,2.444915771484375,0.530853271484375,4.225023443223443E8,3.223967032967033E8,2371648.3516483516,79.56342,1,1.0,1.0,1.0,1.0,85.00
2025-09-17 18:09:21.493,0.4364081,0.0,0.096708186,0.42860916,0.2539761,0.0,-0.2868243,-0.07020418,-0.103172466,0.0,0.17888345,0.31457448,0.4277442,0.0,-0.04312459,0.16558106,-0.11768192,0.0,-0.5379631,-0.4305992,893.69965,960.58606,806.26373,871.9414,822.7839,680.9524,-0.0216064453125,0.131103515625,0.98394775390625,-0.43365478515625,2.444915771484375,0.530853271484375,4.225023443223443E8,3.223967032967033E8,2371648.3516483516,79.56342,1,1.0,1.0,1.0,1.0,85.00
2025-09-17 18:09:21.493,0.13554929,0.0,0.08865917,0.39989477,0.44761068,0.0,-0.29046124,0.020310856,0.8415709,0.0,0.20232709,0.3237657,0.33674318,0.0,-0.0456769,0.21253516,-0.14559335,0.0,-0.56050444,-0.3980845,856.63007,814.3223,806.6667,870.32965,867.50916,692.23444,-0.0216064453125,0.131103515625,0.98394775390625,-0.43365478515625,2.444915771484375,0.530853271484375,4.225023443223443E8,3.223967032967033E8,2371648.3516483516,79.56342,1,1.0,1.0,1.0,1.0,85.00
2025-09-17 18:09:21.546,0.13554929,0.0,0.08865917,0.39989477,0.44761068,0.0,-0.29046124,0.020310856,0.8415709,0.0,0.20232709,0.3237657,0.33674318,0.0,-0.0456769,0.21253516,-0.14559335,0.0,-0.56050444,-0.3980845,715.6044,675.31134,802.6374,766.3736,831.6484,598.3516,-0.0216064453125,0.131103515625,0.98394775390625,-0.43365478515625,2.444915771484375,0.530853271484375,4.225023443223443E8,3.224120146520147E8,2367619.0476190476,79.638245,1,1.0,1.0,1.0,1.0,85.00
2025-09-17 18:09:21.547,0.13554929,0.0,0.08865917,0.39989477,0.44761068,0.0,-0.29046124,0.020310856,0.8415709,0.0,0.20232709,0.3237657,0.33674318,0.0,-0.0456769,0.21253516,-0.14559335,0.0,-0.56050444,-0.3980845,722.0513,778.0586,802.6374,746.2271,769.59705,609.2308,-0.0216064453125,0.131103515625,0.98394775390625,-0.43365478515625,2.444915771484375,0.530853271484375,4.225023443223443E8,3.224120146520147E8,2367619.0476190476,79.638245,1,1.0,1.0,1.0,1.0,85.00
2025-09-17 18:09:21.547,0.13554929,0.0,0.08865917,0.39989477,0.44761068,0.0,-0.29046124,0.020310856,0.8415709,0.0,0.20232709,0.3237657,0.33674318,0.0,-0.0456769,0.21253516,-0.14559335,0.0,-0.56050444,-0.3980845,861.4652,910.6227,804.2491,839.707,774.0293,662.01465,-0.0216064453125,0.131103515625,0.98394775390625,-0.43365478515625,2.444915771484375,0.530853271484375,4.225023443223443E8,3.224120146520147E8,2367619.0476190476,79.638245,1,1.0,1.0,1.0,1.0,85.00
2025-09-17 18:09:21.547,0.13554929,0.0,0.08865917,0.39989477,0.44761068,0.0,-0.29046124,0.020310856,0.8415709,0.0,0.20232709,0.3237657,0.33674318,0.0,-0.0456769,0.21253516,-0.14559335,0.0,-0.56050444,-0.3980845,893.69965,860.65936,805.05493,878.3883,813.1135,668.0586,-0.0216064453125,0.131103515625,0.98394775390625,-0.43365478515625,2.444915771484375,0.530853271484375,4.225023443223443E8,3.224120146520147E8,2367619.0476190476,79.638245,1,1.0,1.0,1.0,1.0,85.00
2025-09-17 18:09:21.548,0.13554929,0.0,0.08865917,0.39989477,0.44761068,0.0,-0.29046124,0.020310856,0.8415709,0.0,0.20232709,0.3237657,0.33674318,0.0,-0.0456769,0.21253516,-0.14559335,0.0,-0.56050444,-0.3980845,761.13556,770.40295,803.0403,788.1319,820.3663,917.8755,-0.0216064453125,0.131103515625,0.98394775390625,-0.43365478515625,2.444915771484375,0.530853271484375,4.225023443223443E8,3.224120146520147E8,2367619.0476190476,79.638245,1,1.0,1.0,1.0,1.0,85.00
2025-09-17 18:09:21.548,0.13554929,0.0,0.08865917,0.39989477,0.44761068,0.0,-0.29046124,0.020310856,0.8415709,0.0,0.20232709,0.3237657,0.33674318,0.0,-0.0456769,0.21253516,-0.14559335,0.0,-0.56050444,-0.3980845,695.05493,749.85345,794.57874,719.6337,790.54944,1089.1208,-0.0216064453125,0.131103515625,0.98394775390625,-0.43365478515625,2.444915771484375,0.530853271484375,4.225023443223443E8,3.224120146520147E8,2367619.0476190476,79.638245,1,1.0,1.0,1.0,1.0,85.00
2025-09-17 18:09:21.548,0.13554929,0.0,0.08865917,0.39989477,0.44761068,0.0,-0.29046124,0.020310856,0.8415709,0.0,0.20232709,0.3237657,0.33674318,0.0,-0.0456769,0.21253516,-0.14559335,0.0,-0.56050444,-0.3980845,804.2491,853.00366,794.17584,791.3553,782.0879,1041.978,-0.0216064453125,0.131103515625,0.98394775390625,-0.43365478515625,2.444915771484375,0.530853271484375,4.225023443223443E8,3.224120146520147E8,2367619.0476190476,79.638245,1,1.0,1.0,1.0,1.0,85.00
2025-09-17 18:09:21.549,0.13554929,0.0,0.08865917,0.39989477,0.44761068,0.0,-0.29046124,0.020310856,0.8415709,0.0,0.20232709,0.3237657,0.33674318,0.0,-0.0456769,0.21253516,-0.14559335,0.0,-0.56050444,-0.3980845,892.0879,897.326,800.6227,868.315,811.0989,1039.5604,-0.0216064453125,0.131103515625,0.98394775390625,-0.43365478515625,2.444915771484375,0.530853271484375,4.225023443223443E8,3.224120146520147E8,2367619.0476190476,79.638245,1,1.0,1.0,1.0,1.0,85.00
2025-09-17 18:09:21.549,0.13554929,0.0,0.08865917,0.39989477,0.44761068,0.0,-0.29046124,0.020310856,0.8415709,0.0,0.20232709,0.3237657,0.33674318,0.0,-0.0456769,0.21253516,-0.14559335,0.0,-0.56050444,-0.3980845,782.0879,747.4359,802.23444,805.8608,814.7253,1088.3151,-0.0216064453125,0.131103515625,0.98394775390625,-0.43365478515625,2.444915771484375,0.530853271484375,4.225023443223443E8,3.224120146520147E8,2367619.0476190476,79.638245,1,1.0,1.0,1.0,1.0,85.00
2025-09-17 18:09:21.549,0.13554929,0.0,0.08865917,0.39989477,0.44761068,0.0,-0.29046124,0.020310856,0.8415709,0.0,0.20232709,0.3237657,0.33674318,0.0,-0.0456769,0.21253516,-0.14559335,0.0,-0.56050444,-0.3980845,674.5055,610.84247,793.7729,721.6484,734.94507,751.4652,-0.0216064453125,0.131103515625,0.98394775390625,-0.43365478515625,2.444915771484375,0.530853271484375,4.225023443223443E8,3.224120146520147E8,2367619.0476190476,79.638245,1,1.0,1.0,1.0,1.0,85.00
2025-09-17 18:09:21.550,0.13554929,0.0,0.08865917,0.39989477,0.44761068,0.0,-0.29046124,0.020310856,0.8415709,0.0,0.20232709,0.3237657,0.33674318,0.0,-0.0456769,0.21253516,-0.14559335,0.0,-0.56050444,-0.3980845,769.59705,840.9158,796.99634,772.8205,803.0403,608.8278,-0.0216064453125,0.131103515625,0.98394775390625,-0.43365478515625,2.444915771484375,0.530853271484375,4.225023443223443E8,3.224120146520147E8,2367619.0476190476,79.638245,1,1.0,1.0,1.0,1.0,85.00
2025-09-17 18:09:21.550,0.13554929,0.0,0.08865917,0.39989477,0.44761068,0.0,-0.29046124,0.020310856,0.8415709,0.0,0.20232709,0.3237657,0.33674318,0.0,-0.0456769,0.21253516,-0.14559335,0.0,-0.56050444,-0.3980845,896.9231,929.15753,806.6667,868.71796,898.1319,684.57874,-0.0216064453125,0.131103515625,0.98394775390625,-0.43365478515625,2.444915771484375,0.530853271484375,4.225023443223443E8,3.224120146520147E8,2367619.0476190476,79.638245,1,1.0,1.0,1.0,1.0,85.00
2025-09-17 18:09:21.582,0.13554929,0.0,0.08865917,0.39989477,0.44761068,0.0,-0.29046124,0.020310856,0.8415709,0.0,0.20232709,0.3237657,0.33674318,0.0,-0.0456769,0.21253516,-0.14559335,0.0,-0.56050444,-0.3980845,824.3956,770.40295,805.8608,834.4689,873.1502,679.34064,-0.0179443359375,0.11669921875,0.9737548828125,-1.8243408203125,-0.844879150390625,-1.502838134765625,4.225023443223443E8,3.224120146520147E8,2367619.0476190476,79.638245,1,1.0,1.0,1.0,1.0,85.00
2025-09-17 18:09:21.583,0.13554929,0.0,0.08865917,0.39989477,0.44761068,0.0,-0.29046124,0.020310856,0.8415709,0.0,0.20232709,0.3237657,0.33674318,0.0,-0.0456769,0.21253516,-0.14559335,0.0,-0.56050444,-0.3980845,697.47253,696.26373,800.2198,736.1539,846.1539,773.6264,-0.0179443359375,0.11669921875,0.9737548828125,-1.8243408203125,-0.844879150390625,-1.502838134765625,4.225023443223443E8,3.224120146520147E8,2367619.0476190476,79.638245,1,1.0,1.0,1.0,1.0,85.00
2025-09-17 18:09:21.584,0.13554929,0.0,0.08865917,0.39989477,0.44761068,0.0,-0.29046124,0.020310856,0.8415709,0.0,0.20232709,0.3237657,0.33674318,0.0,-0.0456769,0.21253516,-0.14559335,0.0,-0.56050444,-0.3980845,737.76556,788.5348,799.011,746.2271,811.9048,666.04395,-0.0179443359375,0.11669921875,0.9737548828125,-1.8243408203125,-0.844879150390625,-1.502838134765625,4.225023443223443E8,3.224120146520147E8,2367619.0476190476,79.638245,1,1.0,1.0,1.0,1.0,85.00
2025-09-17 18:09:21.584,0.13554929,0.0,0.08865917,0.39989477,0.44761068,0.0,-0.29046124,0.020310856,0.8415709,0.0,0.20232709,0.3237657,0.33674318,0.0,-0.0456769,0.21253516,-0.14559335,0.0,-0.56050444,-0.3980845,873.1502,921.0989,805.05493,845.7509,812.3077,677.326,-0.0179443359375,0.11669921875,0.9737548828125,-1.8243408203125,-0.844879150390625,-1.502838134765625,4.225023443223443E8,3.224120146520147E8,2367619.0476190476,79.638245,1,1.0,1.0,1.0,1.0,85.00
2025-09-17 18:09:21.585,0.13554929,0.0,0.08865917,0.39989477,0.44761068,0.0,-0.29046124,0.020310856,0.8415709,0.0,0.20232709,0.3237657,0.33674318,0.0,-0.0456769,0.21253516,-0.14559335,0.0,-0.56050444,-0.3980845,859.85345,840.10986,808.2784,859.45056,804.2491,749.85345,-0.0179443359375,0.11669921875,0.9737548828125,-1.8243408203125,-0.844879150390625,-1.502838134765625,4.225023443223443E8,3.224120146520147E8,2367619.0476190476,79.638245,1,1.0,1.0,1.0,1.0,85.00
2025-09-17 18:09:21.585,0.13554929,0.0,0.08865917,0.39989477,0.44761068,0.0,-0.29046124,0.020310856,0.8415709,0.0,0.20232709,0.3237657,0.33674318,0.0,-0.0456769,0.21253516,-0.14559335,0.0,-0.56050444,-0.3980845,725.6777,745.82416,801.4286,767.5824,796.5934,950.5128,-0.0179443359375,0.11669921875,0.9737548828125,-1.8243408203125,-0.844879150390625,-1.502838134765625,4.225023443223443E8,3.224120146520147E8,2367619.0476190476,79.638245,1,1.0,1.0,1.0,1.0,85.00
2025-09-17 18:09:21.586,0.13554929,0.0,0.08865917,0.39989477,0.44761068,0.0,-0.29046124,0.020310856,0.8415709,0.0,0.20232709,0.3237657,0.33674318,0.0,-0.0456769,0.21253516,-0.14559335,0.0,-0.56050444,-0.3980845,716.0073,776.8498,792.5641,731.31866,830.4396,1119.3407,-0.0179443359375,0.11669921875,0.9737548828125,-1.8243408203125,-0.844879150390625,-1.502838134765625,4.225023443223443E8,3.224120146520147E8,2367619.0476190476,79.638245,1,1.0,1.0,1.0,1.0,85.00
2025-09-17 18:09:21.587,0.13554929,0.0,0.08865917,0.39989477,0.44761068,0.0,-0.29046124,0.020310856,0.8415709,0.0,0.20232709,0.3237657,0.33674318,0.0,-0.0456769,0.21253516,-0.14559335,0.0,-0.56050444,-0.3980845,839.707,814.7253,793.7729,813.5165,766.3736,894.5055,-0.0179443359375,0.11669921875,0.9737548828125,-1.8243408203125,-0.844879150390625,-1.502838134765625,4.225023443223443E8,3.224120146520147E8,2367619.0476190476,79.638245,1,1.0,1.0,1.0,1.0,85.00
2025-09-17 18:09:21.587,0.13554929,0.0,0.08865917,0.39989477,0.44761068,0.0,-0.29046124,0.020310856,0.8415709,0.0,0.20232709,0.3237657,0.33674318,0.0,-0.0456769,0.21253516,-0.14559335,0.0,-0.56050444,-0.3980845,882.8205,810.293,796.5934,869.12085,768.3883,671.685,-0.0179443359375,0.11669921875,0.9737548828125,-1.8243408203125,-0.844879150390625,-1.502838134765625,4.225023443223443E8,3.224120146520147E8,2367619.0476190476,79.638245,1,1.0,1.0,1.0,1.0,85.00
2025-09-17 18:09:21.588,0.13554929,0.0,0.08865917,0.39989477,0.44761068,0.0,-0.29046124,0.020310856,0.8415709,0.0,0.20232709,0.3237657,0.33674318,0.0,-0.0456769,0.21253516,-0.14559335,0.0,-0.56050444,-0.3980845,766.3736,729.707,796.1905,790.54944,810.696,632.6007,-0.0179443359375,0.11669921875,0.9737548828125,-1.8243408203125,-0.844879150390625,-1.502838134765625,4.225023443223443E8,3.224120146520147E8,2367619.0476190476,79.638245,1,1.0,1.0,1.0,1.0,85.00
2025-09-17 18:09:21.588,0.13554929,0.0,0.08865917,0.39989477,0.44761068,0.0,-0.29046124,0.020310856,0.8415709,0.0,0.20232709,0.3237657,0.33674318,0.0,-0.0456769,0.21253516,-0.14559335,0.0,-0.56050444,-0.3980845,701.9048,718.022,797.3993,726.4835,823.5897,647.1062,-0.0179443359375,0.11669921875,0.9737548828125,-1.8243408203125,-0.844879150390625,-1.502838134765625,4.225023443223443E8,3.224120146520147E8,2367619.0476190476,79.638245,1,1.0,1.0,1.0,1.0,85.00
2025-09-17 18:09:21.589,0.13554929,0.0,0.08865917,0.39989477,0.44761068,0.0,-0.29046124,0.020310856,0.8415709,0.0,0.20232709,0.3237657,0.33674318,0.0,-0.0456769,0.21253516,-0.14559335,0.0,-0.56050444,-0.3980845,809.89014,842.52747,802.23444,796.99634,846.55676,582.6374,-0.0179443359375,0.11669921875,0.9737548828125,-1.8243408203125,-0.844879150390625,-1.502838134765625,4.225023443223443E8,3.224120146520147E8,2367619.0476190476,79.638245,1,1.0,1.0,1.0,1.0,85.00
2025-09-17 18:09:21.592,0.13554929,0.0,0.08865917,0.39989477,0.44761068,0.0,-0.29046124,0.020310856,0.8415709,0.0,0.20232709,0.3237657,0.33674318,0.0,-0.0456769,0.21253516,-0.14559335,0.0,-0.56050444,-0.3980845,905.38464,933.9927,806.6667,881.6117,854.21246,620.9158,1.8310546875E-4,0.1053466796875,0.99151611328125,-0.844879150390625,-2.908477783203125,-1.33087158203125,4.225023443223443E8,3.2232336996336997E8,2355531.1355311354,79.70868,1,1.0,1.0,1.0,1.0,85.00
2025-09-17 18:09:21.593,0.0993563,0.0,0.067475006,0.38249257,0.5185834,0.0,-0.2905659,0.11906471,0.86286515,0.0,0.2019601,0.34548977,0.37923566,0.0,-0.04079288,0.26821768,-0.07279932,0.0,-0.5759711,-0.3723195,809.89014,784.10254,805.8608,826.0073,855.82416,784.10254,1.8310546875E-4,0.1053466796875,0.99151611328125,-0.844879150390625,-2.908477783203125,-1.33087158203125,4.225023443223443E8,3.2232336996336997E8,2355531.1355311354,79.70868,1,1.0,1.0,1.0,1.0,85.00
2025-09-17 18:09:21.595,0.0993563,0.0,0.067475006,0.38249257,0.5185834,0.0,-0.2905659,0.11906471,0.86286515,0.0,0.2019601,0.34548977,0.37923566,0.0,-0.04079288,0.26821768,-0.07279932,0.0,-0.5759711,-0.3723195,702.71063,672.49084,796.1905,732.1245,786.52014,653.1502,1.8310546875E-4,0.1053466796875,0.99151611328125,-0.844879150390625,-2.908477783203125,-1.33087158203125,4.225023443223443E8,3.2232336996336997E8,2355531.1355311354,79.70868,1,1.0,1.0,1.0,1.0,85.00
2025-09-17 18:09:21.595,0.0993563,0.0,0.067475006,0.38249257,0.5185834,0.0,-0.2905659,0.11906471,0.86286515,0.0,0.2019601,0.34548977,0.37923566,0.0,-0.04079288,0.26821768,-0.07279932,0.0,-0.5759711,-0.3723195,771.2088,842.9304,792.96704,767.98535,784.10254,590.293,1.8310546875E-4,0.1053466796875,0.99151611328125,-0.844879150390625,-2.908477783203125,-1.33087158203125,4.225023443223443E8,3.2232336996336997E8,2355531.1355311354,79.70868,1,1.0,1.0,1.0,1.0,85.00
2025-09-17 18:09:21.595,0.0993563,0.0,0.067475006,0.38249257,0.5185834,0.0,-0.2905659,0.11906471,0.86286515,0.0,0.2019601,0.34548977,0.37923566,0.0,-0.04079288,0.26821768,-0.07279932,0.0,-0.5759711,-0.3723195,888.86444,956.9597,799.81683,862.27106,794.9817,713.9927,1.8310546875E-4,0.1053466796875,0.99151611328125,-0.844879150390625,-2.908477783203125,-1.33087158203125,4.225023443223443E8,3.2232336996336997E8,2355531.1355311354,79.70868,1,1.0,1.0,1.0,1.0,85.00
2025-09-17 18:09:21.596,0.0993563,0.0,0.067475006,0.38249257,0.5185834,0.0,-0.2905659,0.11906471,0.86286515,0.0,0.2019601,0.34548977,0.37923566,0.0,-0.04079288,0.26821768,-0.07279932,0.0,-0.5759711,-0.3723195,836.8865,864.68866,800.6227,845.34796,813.91943,1007.72894,1.8310546875E-4,0.1053466796875,0.99151611328125,-0.844879150390625,-2.908477783203125,-1.33087158203125,4.225023443223443E8,3.2232336996336997E8,2355531.1355311354,79.70868,1,1.0,1.0,1.0,1.0,85.00
2025-09-17 18:09:21.596,0.0993563,0.0,0.067475006,0.38249257,0.5185834,0.0,-0.2905659,0.11906471,0.86286515,0.0,0.2019601,0.34548977,0.37923566,0.0,-0.04079288,0.26821768,-0.07279932,0.0,-0.5759711,-0.3723195,708.7546,668.46155,797.8022,746.63007,830.4396,1122.967,1.8310546875E-4,0.1053466796875,0.99151611328125,-0.844879150390625,-2.908477783203125,-1.33087158203125,4.225023443223443E8,3.2232336996336997E8,2355531.1355311354,79.70868,1,1.0,1.0,1.0,1.0,85.00
2025-09-17 18:09:21.597,0.0993563,0.0,0.067475006,0.38249257,0.5185834,0.0,-0.2905659,0.11906471,0.86286515,0.0,0.2019601,0.34548977,0.37923566,0.0,-0.04079288,0.26821768,-0.07279932,0.0,-0.5759711,-0.3723195,730.5128,702.71063,794.17584,739.3773,728.0952,664.83514,1.8310546875E-4,0.1053466796875,0.99151611328125,-0.844879150390625,-2.908477783203125,-1.33087158203125,4.225023443223443E8,3.2232336996336997E8,2355531.1355311354,79.70868,1,1.0,1.0,1.0,1.0,85.00
2025-09-17 18:09:21.597,0.0993563,0.0,0.067475006,0.38249257,0.5185834,0.0,-0.2905659,0.11906471,0.86286515,0.0,0.2019601,0.34548977,0.37923566,0.0,-0.04079288,0.26821768,-0.07279932,0.0,-0.5759711,-0.3723195,867.1062,978.71796,800.2198,840.9158,724.4689,755.89746,1.8310546875E-4,0.1053466796875,0.99151611328125,-0.844879150390625,-2.908477783203125,-1.33087158203125,4.225023443223443E8,3.2232336996336997E8,2355531.1355311354,79.70868,1,1.0,1.0,1.0,1.0,85.00
2025-09-17 18:09:21.597,0.0993563,0.0,0.067475006,0.38249257,0.5185834,0.0,-0.2905659,0.11906471,0.86286515,0.0,0.2019601,0.34548977,0.37923566,0.0,-0.04079288,0.26821768,-0.07279932,0.0,-0.5759711,-0.3723195,874.7619,815.12823,809.4872,871.53845,792.96704,828.022,1.8310546875E-4,0.1053466796875,0.99151611328125,-0.844879150390625,-2.908477783203125,-1.33087158203125,4.225023443223443E8,3.2232336996336997E8,2355531.1355311354,79.70868,1,1.0,1.0,1.0,1.0,85.00
2025-09-17 18:09:21.598,0.0993563,0.0,0.067475006,0.38249257,0.5185834,0.0,-0.2905659,0.11906471,0.86286515,0.0,0.2019601,0.34548977,0.37923566,0.0,-0.04079288,0.26821768,-0.07279932,0.0,-0.5759711,-0.3723195,739.3773,714.7985,803.44324,774.0293,815.5311,737.76556,1.8310546875E-4,0.1053466796875,0.99151611328125,-0.844879150390625,-2.908477783203125,-1.33087158203125,4.225023443223443E8,3.2232336996336997E8,2355531.1355311354,79.70868,1,1.0,1.0,1.0,1.0,85.00
2025-09-17 18:09:21.598,0.0993563,0.0,0.067475006,0.38249257,0.5185834,0.0,-0.2905659,0.11906471,0.86286515,0.0,0.2019601,0.34548977,0.37923566,0.0,-0.04079288,0.26821768,-0.07279932,0.0,-0.5759711,-0.3723195,708.3516,749.45056,797.8022,724.0659,791.3553,716.4103,1.8310546875E-4,0.1053466796875,0.99151611328125,-0.844879150390625,-2.908477783203125,-1.33087158203125,4.225023443223443E8,3.2232336996336997E8,2355531.1355311354,79.70868,1,1.0,1.0,1.0,1.0,85.00
2025-09-17 18:09:21.627,0.0993563,0.0,0.067475006,0.38249257,0.5185834,0.0,-0.2905659,0.11906471,0.86286515,0.0,0.2019601,0.34548977,0.37923566,0.0,-0.04079288,0.26821768,-0.07279932,0.0,-0.5759711,-0.3723195,838.9011,840.9158,799.81683,805.05493,769.59705,558.86444,-0.00335693359375,0.1080322265625,0.99835205078125,-0.0897216796875,-1.614990234375,-1.256103515625,4.225023443223443E8,3.2232336996336997E8,2355531.1355311354,79.70868,1,1.0,1.0,1.0,1.0,85.00
2025-09-17 18:09:21.627,0.0993563,0.0,0.067475006,0.38249257,0.5185834,0.0,-0.2905659,0.11906471,0.86286515,0.0,0.2019601,0.34548977,0.37923566,0.0,-0.04079288,0.26821768,-0.07279932,0.0,-0.5759711,-0.3723195,906.1905,924.3223,803.0403,871.13556,871.53845,721.6484,-0.00335693359375,0.1080322265625,0.99835205078125,-0.0897216796875,-1.614990234375,-1.256103515625,4.225023443223443E8,3.2232336996336997E8,2355531.1355311354,79.70868,1,1.0,1.0,1.0,1.0,85.00
2025-09-17 18:09:21.627,0.0993563,0.0,0.067475006,0.38249257,0.5185834,0.0,-0.2905659,0.11906471,0.86286515,0.0,0.2019601,0.34548977,0.37923566,0.0,-0.04079288,0.26821768,-0.07279932,0.0,-0.5759711,-0.3723195,786.9231,747.4359,803.8461,792.96704,941.2454,835.2747,-0.00335693359375,0.1080322265625,0.99835205078125,-0.0897216796875,-1.614990234375,-1.256103515625,4.225023443223443E8,3.2232336996336997E8,2355531.1355311354,79.70868,1,1.0,1.0,1.0,1.0,85.00
2025-09-17 18:09:21.628,0.0993563,0.0,0.067475006,0.38249257,0.5185834,0.0,-0.2905659,0.11906471,0.86286515,0.0,0.2019601,0.34548977,0.37923566,0.0,-0.04079288,0.26821768,-0.07279932,0.0,-0.5759711,-0.3723195,704.3223,644.68866,801.02563,714.3956,891.685,595.5311,-0.00335693359375,0.1080322265625,0.99835205078125,-0.0897216796875,-1.614990234375,-1.256103515625,4.225023443223443E8,3.2232336996336997E8,2355531.1355311354,79.70868,1,1.0,1.0,1.0,1.0,85.00
2025-09-17 18:09:21.628,0.0993563,0.0,0.067475006,0.38249257,0.5185834,0.0,-0.2905659,0.11906471,0.86286515,0.0,0.2019601,0.34548977,0.37923566,0.0,-0.04079288,0.26821768,-0.07279932,0.0,-0.5759711,-0.3723195,806.6667,858.24176,801.4286,778.0586,800.2198,477.87546,-0.00335693359375,0.1080322265625,0.99835205078125,-0.0897216796875,-1.614990234375,-1.256103515625,4.225023443223443E8,3.2232336996336997E8,2355531.1355311354,79.70868,1,1.0,1.0,1.0,1.0,85.00
2025-09-17 18:09:21.628,0.0993563,0.0,0.067475006,0.38249257,0.5185834,0.0,-0.2905659,0.11906471,0.86286515,0.0,0.2019601,0.34548977,0.37923566,0.0,-0.04079288,0.26821768,-0.07279932,0.0,-0.5759711,-0.3723195,911.02563,1042.381,805.05493,864.2857,807.47253,977.50916,-0.00335693359375,0.1080322265625,0.99835205078125,-0.0897216796875,-1.614990234375,-1.256103515625,4.225023443223443E8,3.2232336996336997E8,2355531.1355311354,79.70868,1,1.0,1.0,1.0,1.0,85.00
2025-09-17 18:09:21.629,0.0993563,0.0,0.067475006,0.38249257,0.5185834,0.0,-0.2905659,0.11906471,0.86286515,0.0,0.2019601,0.34548977,0.37923566,0.0,-0.04079288,0.26821768,-0.07279932,0.0,-0.5759711,-0.3723195,824.3956,764.7619,796.1905,819.5604,795.78754,1160.4396,-0.00335693359375,0.1080322265625,0.99835205078125,-0.0897216796875,-1.614990234375,-1.256103515625,4.225023443223443E8,3.2232336996336997E8,2355531.1355311354,79.70868,1,1.0,1.0,1.0,1.0,85.00
