TP9,AF7,AF8,TP10,unix_sec,unix_ms,rel_sec,rel_ms
810.696,892.0879,800.6227,792.1612,1758146960.702,1758146960702,0.004999876022338867,5
913.8461,959.3773,806.6667,884.43225,1758146960.702,1758146960702,0.004999876022338867,5
813.91943,759.92676,805.4579,827.619,1758146960.703,1758146960703,0.006000041961669922,6
705.5311,737.3626,801.8315,732.52747,1758146960.704,1758146960704,0.006999969482421875,7
785.7143,926.337,801.8315,774.0293,1758146960.704,1758146960704,0.006999969482421875,7
908.60803,965.42126,806.26373,871.53845,1758146960.704,1758146960704,0.006999969482421875,7
847.3626,762.74725,809.4872,856.2271,1758146960.705,1758146960705,0.007999897003173828,8
710.3663,599.15753,802.23444,754.2857,1758146960.705,1758146960705,0.007999897003173828,8
739.3773,813.1135,796.1905,746.2271,1758146960.706,1758146960706,0.009000062942504883,9
879.59705,883.6264,801.4286,845.7509,1758146960.707,1758146960707,0.009999990463256836,10
881.2088,801.8315,807.47253,876.3736,1758146960.707,1758146960707,0.009999990463256836,10
743.4066,701.9048,804.65204,777.6557,1758146960.707,1758146960707,0.009999990463256836,10
711.1722,744.61536,799.011,730.9158,1758146960.739,1758146960739,0.04200005531311035,42
836.8865,911.4286,804.2491,825.2015,1758146960.739,1758146960739,0.04200005531311035,42
896.1172,892.8938,811.0989,888.0586,1758146960.74,1758146960740,0.042999982833862305,43
774.83514,674.90845,808.68134,803.44324,1758146960.74,1758146960740,0.042999982833862305,43
691.4286,724.4689,803.0403,722.4542,1758146960.74,1758146960740,0.042999982833862305,43
794.17584,958.97437,802.23444,786.9231,1758146960.741,1758146960741,0.04399991035461426,44
899.34064,902.5641,808.2784,877.98535,1758146960.741,1758146960741,0.04399991035461426,44
802.23444,737.76556,804.65204,825.6044,1758146960.741,1758146960741,0.04399991035461426,44
680.54944,672.0879,793.7729,734.1392,1758146960.741,1758146960741,0.04399991035461426,44
747.8388,774.83514,792.96704,760.7326,1758146960.742,1758146960742,0.04500007629394531,45
886.04395,915.4579,799.011,857.03296,1758146960.742,1758146960742,0.04500007629394531,45
851.39197,813.5165,803.0403,853.00366,1758146960.742,1758146960742,0.04500007629394531,45
712.381,690.6227,801.4286,750.65936,1758146960.766,1758146960766,0.0690000057220459,69
725.6777,757.1062,798.20514,736.55676,1758146960.767,1758146960767,0.06999993324279785,70
869.12085,911.4286,803.44324,837.6923,1758146960.767,1758146960767,0.06999993324279785,70
885.64105,830.84247,809.4872,879.19415,1758146960.767,1758146960767,0.06999993324279785,70
753.47986,726.08057,806.26373,786.1172,1758146960.768,1758146960768,0.0709998607635498,71
709.5604,829.2308,799.011,728.0952,1758146960.768,1758146960768,0.0709998607635498,71
827.619,883.22345,796.5934,805.8608,1758146960.768,1758146960768,0.0709998607635498,71
904.17584,878.7912,801.8315,881.6117,1758146960.769,1758146960769,0.07200002670288086,72
787.326,771.6117,802.23444,806.6667,1758146960.769,1758146960769,0.07200002670288086,72
687.3993,643.47986,793.7729,717.619,1758146960.769,1758146960769,0.07200002670288086,72
784.90845,875.56775,798.20514,781.28204,1758146960.771,1758146960771,0.07399988174438477,74
900.14655,956.9597,804.2491,874.7619,1758146960.771,1758146960771,0.07399988174438477,74
816.337,724.4689,802.6374,831.6484,1758146960.792,1758146960792,0.09500002861022949,95
694.2491,687.8022,799.41394,738.97437,1758146960.793,1758146960793,0.09599995613098145,96
751.06226,827.619,799.81683,755.89746,1758146960.793,1758146960793,0.09599995613098145,96
887.6557,887.25275,808.2784,853.8095,1758146960.794,1758146960794,0.0969998836517334,97
859.45056,805.8608,813.1135,862.674,1758146960.794,1758146960794,0.0969998836517334,97
721.6484,759.12085,808.2784,766.77655,1758146960.794,1758146960794,0.0969998836517334,97
718.8278,780.07324,804.2491,737.76556,1758146960.795,1758146960795,0.09800004959106445,98
850.18317,862.674,808.2784,827.619,1758146960.795,1758146960795,0.09800004959106445,98
884.0293,850.58606,811.50183,878.7912,1758146960.795,1758146960795,0.09800004959106445,98
750.2564,725.6777,805.4579,790.9524,1758146960.796,1758146960796,0.0989999771118164,99
695.4579,708.7546,799.41394,726.4835,1758146960.796,1758146960796,0.0989999771118164,99
821.1722,849.3773,802.23444,799.011,1758146960.796,1758146960796,0.0989999771118164,99
913.8461,926.7399,809.4872,884.43225,1758146960.862,1758146960862,0.16499996185302734,165
805.05493,745.42126,809.89014,822.381,1758146960.863,1758146960863,0.1659998893737793,166
706.7399,712.381,806.26373,732.1245,1758146960.863,1758146960863,0.1659998893737793,166
790.9524,823.1868,801.8315,774.83514,1758146960.863,1758146960863,0.1659998893737793,166
906.5934,919.0842,804.2491,866.7033,1758146960.864,1758146960864,0.16700005531311035,167
840.5128,864.68866,805.8608,838.0952,1758146960.864,1758146960864,0.16700005531311035,167
712.7839,693.44324,800.6227,739.3773,1758146960.864,1758146960864,0.16700005531311035,167
753.0769,789.34064,795.78754,740.58606,1758146960.865,1758146960865,0.1679999828338623,168
884.0293,934.7985,797.3993,839.707,1758146960.865,1758146960865,0.1679999828338623,168
873.1502,779.67035,802.23444,863.8828,1758146960.865,1758146960865,0.1679999828338623,168
736.55676,653.95605,799.41394,762.3443,1758146960.866,1758146960866,0.16899991035461426,169
722.0513,724.87177,795.38464,722.0513,1758146960.866,1758146960866,0.16899991035461426,169
852.1978,911.4286,797.8022,810.696,1758146960.89,1758146960890,0.19300007820129395,193
896.1172,920.696,805.05493,873.5531,1758146960.89,1758146960890,0.19300007820129395,193
766.3736,729.304,807.0696,795.78754,1758146960.891,1758146960891,0.1940000057220459,194
692.6374,688.60803,804.65204,727.28937,1758146960.891,1758146960891,0.1940000057220459,194
803.44324,891.28204,804.2491,794.57874,1758146960.891,1758146960891,0.1940000057220459,194
904.17584,1003.2967,805.05493,877.98535,1758146960.892,1758146960892,0.19499993324279785,195
805.05493,790.9524,806.6667,823.1868,1758146960.892,1758146960892,0.19499993324279785,195
688.20514,591.50183,802.6374,728.0952,1758146960.892,1758146960892,0.19499993324279785,195
765.56775,771.2088,799.81683,762.3443,1758146960.893,1758146960893,0.1959998607635498,196
892.8938,937.619,808.68134,863.8828,1758146960.893,1758146960893,0.1959998607635498,196
836.4835,766.77655,811.0989,845.34796,1758146960.893,1758146960893,0.1959998607635498,196
703.91943,653.1502,803.0403,743.00366,1758146960.894,1758146960894,0.19700002670288086,197
732.1245,799.011,799.011,742.1978,1758146960.949,1758146960949,0.2519998550415039,252
868.71796,920.696,803.0403,840.10986,1758146960.95,1758146960950,0.25300002098083496,253
880.0,867.50916,804.65204,868.71796,1758146960.95,1758146960950,0.25300002098083496,253
742.6007,710.3663,797.8022,770.80585,1758146960.951,1758146960951,0.2539999485015869,254
705.9341,738.5714,793.36993,720.4396,1758146960.951,1758146960951,0.2539999485015869,254
842.1245,999.2674,799.81683,809.0842,1758146960.951,1758146960951,0.2539999485015869,254
909.81683,947.6923,803.8461,876.77655,1758146960.952,1758146960952,0.25499987602233887,255
776.4469,623.73627,795.38464,791.3553,1758146960.952,1758146960952,0.25499987602233887,255
693.8461,732.1245,793.7729,716.4103,1758146960.952,1758146960952,0.25499987602233887,255
799.011,861.8681,798.60803,785.31134,1758146960.953,1758146960953,0.2560000419616699,256
904.17584,862.27106,800.6227,875.16486,1758146960.953,1758146960953,0.2560000419616699,256
813.91943,742.6007,799.81683,820.3663,1758146960.953,1758146960953,0.2560000419616699,256
695.8608,695.05493,794.9817,724.0659,1758146961.018,1758146961018,0.3209998607635498,321
768.7912,849.7802,794.57874,757.9121,1758146961.018,1758146961018,0.3209998607635498,321
900.9524,944.87177,799.41394,855.42126,1758146961.02,1758146961020,0.3229999542236328,323
860.65936,813.1135,802.23444,852.6007,1758146961.02,1758146961020,0.3229999542236328,323
726.4835,676.1172,799.011,748.24176,1758146961.021,1758146961021,0.32399988174438477,324
736.9597,832.8571,794.9817,729.707,1758146961.021,1758146961021,0.32399988174438477,324
872.3443,931.1722,799.41394,829.6337,1758146961.021,1758146961021,0.32399988174438477,324
893.69965,775.2381,805.05493,871.53845,1758146961.022,1758146961022,0.3250000476837158,325
752.674,671.685,797.8022,775.64105,1758146961.022,1758146961022,0.3250000476837158,325
695.05493,724.87177,794.57874,718.8278,1758146961.022,1758146961022,0.3250000476837158,325
815.9341,870.7326,802.6374,801.4286,1758146961.022,1758146961022,0.3250000476837158,325
897.72894,896.1172,809.89014,876.3736,1758146961.023,1758146961023,0.3259999752044678,326
782.8938,786.9231,808.68134,803.0403,1758146961.025,1758146961025,0.3280000686645508,328
684.17584,733.3333,803.0403,714.7985,1758146961.025,1758146961025,0.3280000686645508,328
777.6557,814.3223,803.8461,769.19415,1758146961.026,1758146961026,0.32899999618530273,329
894.10254,880.40295,809.89014,863.0769,1758146961.026,1758146961026,0.32899999618530273,329
811.50183,796.5934,805.8608,818.7546,1758146961.026,1758146961026,0.32899999618530273,329
685.78754,756.7033,801.4286,724.4689,1758146961.027,1758146961027,0.3299999237060547,330
739.7802,844.1392,803.0403,748.6447,1758146961.027,1758146961027,0.3299999237060547,330
870.7326,931.978,809.0842,848.97437,1758146961.027,1758146961027,0.3299999237060547,330
850.18317,812.3077,811.0989,855.82416,1758146961.028,1758146961028,0.33100008964538574,331
714.7985,607.619,803.0403,754.68866,1758146961.028,1758146961028,0.33100008964538574,331
707.5458,715.2015,797.3993,722.4542,1758146961.028,1758146961028,0.33100008964538574,331
843.73627,911.4286,798.20514,818.7546,1758146961.029,1758146961029,0.3320000171661377,332
889.67035,863.8828,805.8608,873.1502,1758146961.082,1758146961082,0.38499999046325684,385
766.3736,717.619,805.8608,788.5348,1758146961.083,1758146961083,0.3859999179840088,386
703.1135,715.2015,796.99634,730.5128,1758146961.083,1758146961083,0.3859999179840088,386
817.5458,840.9158,800.2198,804.65204,1758146961.084,1758146961084,0.38700008392333984,387
917.0696,974.2857,809.89014,883.6264,1758146961.085,1758146961085,0.3880000114440918,388
807.8755,779.67035,804.65204,816.7399,1758146961.085,1758146961085,0.3880000114440918,388
695.05493,645.09155,799.011,724.4689,1758146961.086,1758146961086,0.38899993896484375,389
782.49084,772.01465,801.4286,770.0,1758146961.086,1758146961086,0.38899993896484375,389
905.78754,884.0293,805.8608,865.4945,1758146961.086,1758146961086,0.38899993896484375,389
844.1392,775.2381,804.2491,835.6777,1758146961.087,1758146961087,0.3899998664855957,390
715.6044,657.98535,797.8022,732.9304,1758146961.087,1758146961087,0.3899998664855957,390
762.3443,803.8461,801.8315,746.2271,1758146961.087,1758146961087,0.3899998664855957,390
911.02563,961.79486,807.8755,857.03296,1758146961.116,1758146961116,0.41899991035461426,419
898.5348,861.06226,808.68134,878.3883,1758146961.116,1758146961116,0.41899991035461426,419
743.8095,690.2198,802.6374,780.87915,1758146961.117,1758146961117,0.4200000762939453,420
703.5165,696.26373,799.41394,739.3773,1758146961.117,1758146961117,0.4200000762939453,420
829.6337,932.381,807.0696,833.2601,1758146961.117,1758146961117,0.4200000762939453,420
891.28204,992.4176,816.7399,903.36993,1758146961.118,1758146961118,0.42100000381469727,421
760.32965,698.68134,814.7253,813.1135,1758146961.118,1758146961118,0.42100000381469727,421
683.7729,630.18317,805.05493,729.707,1758146961.118,1758146961118,0.42100000381469727,421
804.65204,855.42126,801.8315,796.99634,1758146961.119,1758146961119,0.4219999313354492,422
907.3993,877.1795,801.02563,877.1795,1758146961.119,1758146961119,0.4219999313354492,422
803.44324,737.76556,799.41394,814.3223,1758146961.12,1758146961120,0.42299985885620117,423
687.3993,676.52014,790.9524,714.7985,1758146961.12,1758146961120,0.42299985885620117,423
763.5531,851.39197,785.31134,753.0769,1758146961.176,1758146961176,0.4790000915527344,479
890.87915,968.6447,792.5641,855.0183,1758146961.177,1758146961177,0.48000001907348633,480
842.9304,811.0989,795.38464,840.5128,1758146961.177,1758146961177,0.48000001907348633,480
705.9341,677.326,790.9524,738.5714,1758146961.177,1758146961177,0.48000001907348633,480
730.9158,838.9011,791.3553,736.1539,1758146961.178,1758146961178,0.4809999465942383,481
875.9707,996.8498,795.38464,838.9011,1758146961.178,1758146961178,0.4809999465942383,481
879.19415,880.0,801.8315,865.89746,1758146961.179,1758146961179,0.48199987411499023,482
735.7509,647.1062,798.20514,766.3736,1758146961.18,1758146961180,0.4830000400543213,483
697.0696,695.4579,792.5641,714.3956,1758146961.18,1758146961180,0.4830000400543213,483
828.8278,899.34064,798.60803,808.2784,1758146961.18,1758146961180,0.4830000400543213,483
900.9524,924.7253,801.02563,877.5824,1758146961.181,1758146961181,0.48399996757507324,484
774.43225,731.31866,798.20514,794.17584,1758146961.181,1758146961181,0.48399996757507324,484
680.9524,639.0476,790.54944,712.381,1758146961.217,1758146961217,0.5199999809265137,520
785.7143,895.7143,790.54944,773.22345,1758146961.218,1758146961218,0.5209999084472656,521
901.75824,984.35895,801.4286,864.68866,1758146961.219,1758146961219,0.5220000743865967,522
810.293,727.28937,800.2198,818.3516,1758146961.219,1758146961219,0.5220000743865967,522
685.38464,666.8498,793.36993,723.2601,1758146961.22,1758146961220,0.5230000019073486,523
754.68866,931.5751,793.36993,754.68866,1758146961.22,1758146961220,0.5230000019073486,523
898.1319,959.7802,801.8315,857.03296,1758146961.221,1758146961221,0.5239999294281006,524
861.4652,745.0183,805.05493,850.989,1758146961.221,1758146961221,0.5239999294281006,524
720.84247,707.5458,800.6227,749.85345,1758146961.222,1758146961222,0.5249998569488525,525
728.9011,731.7216,797.3993,731.7216,1758146961.222,1758146961222,0.5249998569488525,525
863.8828,872.74725,798.20514,830.0366,1758146961.223,1758146961223,0.5260000228881836,526
893.69965,872.3443,802.23444,879.19415,1758146961.223,1758146961223,0.5260000228881836,526
758.315,716.8132,799.81683,784.10254,1758146961.266,1758146961266,0.5690000057220459,569
695.4579,726.4835,790.9524,717.2161,1758146961.266,1758146961266,0.5690000057220459,569
819.5604,938.8278,792.5641,799.81683,1758146961.267,1758146961267,0.5699999332427979,570
909.81683,909.81683,800.6227,884.43225,1758146961.267,1758146961267,0.5699999332427979,570
788.5348,686.5934,800.2198,813.91943,1758146961.268,1758146961268,0.5709998607635498,571
686.5934,743.4066,796.1905,726.8865,1758146961.268,1758146961268,0.5709998607635498,571
788.5348,901.3553,802.23444,786.1172,1758146961.268,1758146961268,0.5709998607635498,571
902.5641,862.27106,809.4872,880.80585,1758146961.268,1758146961268,0.5709998607635498,571
820.3663,732.52747,807.0696,838.0952,1758146961.27,1758146961270,0.5729999542236328,573
695.05493,695.05493,799.41394,737.76556,1758146961.27,1758146961270,0.5729999542236328,573
742.6007,812.3077,797.8022,752.674,1758146961.271,1758146961271,0.5739998817443848,574
869.92676,867.50916,803.8461,852.6007,1758146961.271,1758146961271,0.5739998817443848,574
848.5714,805.8608,804.2491,859.0476,1758146961.322,1758146961322,0.625,625
715.2015,718.022,799.41394,758.315,1758146961.323,1758146961323,0.625999927520752,626
707.9487,760.7326,796.5934,731.31866,1758146961.323,1758146961323,0.625999927520752,626
839.304,904.17584,796.99634,823.9927,1758146961.323,1758146961323,0.625999927520752,626
886.04395,905.78754,805.05493,880.0,1758146961.324,1758146961324,0.6269998550415039,627
759.5238,783.2967,806.6667,792.96704,1758146961.324,1758146961324,0.6269998550415039,627
687.3993,734.94507,798.20514,717.2161,1758146961.324,1758146961324,0.6269998550415039,627
803.0403,845.34796,798.60803,789.34064,1758146961.325,1758146961325,0.628000020980835,628
900.9524,881.6117,803.0403,875.56775,1758146961.325,1758146961325,0.628000020980835,628
793.36993,673.69965,803.44324,812.71063,1758146961.325,1758146961325,0.628000020980835,628
691.02563,659.59705,799.81683,724.87177,1758146961.326,1758146961326,0.6289999485015869,629
769.59705,834.87177,796.99634,768.3883,1758146961.326,1758146961326,0.6289999485015869,629
890.4762,943.2601,799.41394,867.50916,1758146961.393,1758146961393,0.6959998607635498,696
834.4689,773.6264,804.65204,843.73627,1758146961.394,1758146961394,0.6970000267028809,697
703.5165,643.47986,803.44324,741.79486,1758146961.395,1758146961395,0.6979999542236328,698
736.9597,750.65936,799.81683,743.00366,1758146961.395,1758146961395,0.6979999542236328,698
876.77655,959.7802,805.4579,846.9597,1758146961.396,1758146961396,0.6989998817443848,699
876.3736,931.978,811.9048,874.35895,1758146961.396,1758146961396,0.6989998817443848,699
738.5714,701.9048,807.8755,775.64105,1758146961.397,1758146961397,0.7000000476837158,700
715.2015,667.6557,800.6227,731.7216,1758146961.397,1758146961397,0.7000000476837158,700
845.34796,876.3736,799.81683,822.381,1758146961.398,1758146961398,0.7009999752044678,701
906.5934,925.5311,806.26373,888.86444,1758146961.398,1758146961398,0.7009999752044678,701
778.86444,688.20514,806.6667,802.23444,1758146961.401,1758146961401,0.7039999961853027,704
697.47253,704.3223,801.8315,722.8571,1758146961.401,1758146961401,0.7039999961853027,704
811.9048,877.1795,801.8315,788.5348,1758146961.442,1758146961442,0.744999885559082,745
916.6667,909.011,805.4579,880.80585,1758146961.442,1758146961442,0.744999885559082,745
817.1429,731.7216,803.44324,827.2161,1758146961.443,1758146961443,0.7460000514984131,746
702.71063,645.89746,803.44324,734.94507,1758146961.443,1758146961443,0.7460000514984131,746
774.0293,883.22345,805.8608,773.22345,1758146961.444,1758146961444,0.746999979019165,747
902.96704,1050.0366,810.293,877.1795,1758146961.444,1758146961444,0.746999979019165,747
852.1978,776.8498,812.3077,865.89746,1758146961.444,1758146961444,0.746999979019165,747
710.7692,592.3077,803.44324,759.92676,1758146961.444,1758146961444,0.746999979019165,747
730.5128,801.02563,799.81683,750.65936,1758146961.445,1758146961445,0.747999906539917,748
870.7326,888.0586,803.0403,848.5714,1758146961.445,1758146961445,0.747999906539917,748
881.6117,796.1905,806.6667,879.19415,1758146961.445,1758146961445,0.747999906539917,748
738.5714,677.72894,805.4579,781.685,1758146961.446,1758146961446,0.749000072479248,749
699.0842,792.1612,800.2198,729.707,1758146961.489,1758146961489,0.7920000553131104,792
831.6484,935.6044,801.4286,818.3516,1758146961.49,1758146961490,0.7929999828338623,793
901.3553,863.0769,805.05493,889.2674,1758146961.49,1758146961490,0.7929999828338623,793
776.04395,688.20514,803.0403,809.89014,1758146961.49,1758146961490,0.7929999828338623,793
689.011,689.81683,799.41394,725.6777,1758146961.491,1758146961491,0.7939999103546143,794
799.41394,940.4396,805.05493,792.1612,1758146961.491,1758146961491,0.7939999103546143,794
916.6667,939.2308,813.91943,886.8498,1758146961.492,1758146961492,0.7950000762939453,795
828.8278,703.5165,809.4872,839.304,1758146961.492,1758146961492,0.7950000762939453,795
701.9048,619.707,800.2198,737.3626,1758146961.492,1758146961492,0.7950000762939453,795
760.32965,809.0842,799.81683,763.1502,1758146961.493,1758146961493,0.7960000038146973,796
893.69965,960.58606,806.26373,871.9414,1758146961.493,1758146961493,0.7960000038146973,796
856.63007,814.3223,806.6667,870.32965,1758146961.493,1758146961493,0.7960000038146973,796
715.6044,675.31134,802.6374,766.3736,1758146961.546,1758146961546,0.8489999771118164,849
722.0513,778.0586,802.6374,746.2271,1758146961.547,1758146961547,0.8499999046325684,850
861.4652,910.6227,804.2491,839.707,1758146961.547,1758146961547,0.8499999046325684,850
893.69965,860.65936,805.05493,878.3883,1758146961.547,1758146961547,0.8499999046325684,850
761.13556,770.40295,803.0403,788.1319,1758146961.548,1758146961548,0.8510000705718994,851
695.05493,749.85345,794.57874,719.6337,1758146961.548,1758146961548,0.8510000705718994,851
804.2491,853.00366,794.17584,791.3553,1758146961.548,1758146961548,0.8510000705718994,851
892.0879,897.326,800.6227,868.315,1758146961.549,1758146961549,0.8519999980926514,852
782.0879,747.4359,802.23444,805.8608,1758146961.549,1758146961549,0.8519999980926514,852
674.5055,610.84247,793.7729,721.6484,1758146961.549,1758146961549,0.8519999980926514,852
769.59705,840.9158,796.99634,772.8205,1758146961.55,1758146961550,0.8529999256134033,853
896.9231,929.15753,806.6667,868.71796,1758146961.55,1758146961550,0.8529999256134033,853
824.3956,770.40295,805.8608,834.4689,1758146961.582,1758146961582,0.8849999904632568,885
697.47253,696.26373,800.2198,736.1539,1758146961.583,1758146961583,0.8859999179840088,886
737.76556,788.5348,799.011,746.2271,1758146961.584,1758146961584,0.8870000839233398,887
873.1502,921.0989,805.05493,845.7509,1758146961.584,1758146961584,0.8870000839233398,887
859.85345,840.10986,808.2784,859.45056,1758146961.585,1758146961585,0.8880000114440918,888
725.6777,745.82416,801.4286,767.5824,1758146961.585,1758146961585,0.8880000114440918,888
716.0073,776.8498,792.5641,731.31866,1758146961.586,1758146961586,0.8889999389648438,889
839.707,814.7253,793.7729,813.5165,1758146961.587,1758146961587,0.8899998664855957,890
882.8205,810.293,796.5934,869.12085,1758146961.587,1758146961587,0.8899998664855957,890
766.3736,729.707,796.1905,790.54944,1758146961.588,1758146961588,0.8910000324249268,891
701.9048,718.022,797.3993,726.4835,1758146961.588,1758146961588,0.8910000324249268,891
809.89014,842.52747,802.23444,796.99634,1758146961.589,1758146961589,0.8919999599456787,892
905.38464,933.9927,806.6667,881.6117,1758146961.592,1758146961592,0.8949999809265137,895
809.89014,784.10254,805.8608,826.0073,1758146961.593,1758146961593,0.8959999084472656,896
702.71063,672.49084,796.1905,732.1245,1758146961.595,1758146961595,0.8980000019073486,898
771.2088,842.9304,792.96704,767.98535,1758146961.595,1758146961595,0.8980000019073486,898
888.86444,956.9597,799.81683,862.27106,1758146961.595,1758146961595,0.8980000019073486,898
836.8865,864.68866,800.6227,845.34796,1758146961.596,1758146961596,0.8989999294281006,899
708.7546,668.46155,797.8022,746.63007,1758146961.596,1758146961596,0.8989999294281006,899
730.5128,702.71063,794.17584,739.3773,1758146961.597,1758146961597,0.8999998569488525,900
867.1062,978.71796,800.2198,840.9158,1758146961.597,1758146961597,0.8999998569488525,900
874.7619,815.12823,809.4872,871.53845,1758146961.597,1758146961597,0.8999998569488525,900
739.3773,714.7985,803.44324,774.0293,1758146961.598,1758146961598,0.9010000228881836,901
708.3516,749.45056,797.8022,724.0659,1758146961.598,1758146961598,0.9010000228881836,901
838.9011,840.9158,799.81683,805.05493,1758146961.627,1758146961627,0.9300000667572021,930
906.1905,924.3223,803.0403,871.13556,1758146961.627,1758146961627,0.9300000667572021,930
786.9231,747.4359,803.8461,792.96704,1758146961.627,1758146961627,0.9300000667572021,930
704.3223,644.68866,801.02563,714.3956,1758146961.628,1758146961628,0.9309999942779541,931
806.6667,858.24176,801.4286,778.0586,1758146961.628,1758146961628,0.9309999942779541,931
911.02563,1042.381,805.05493,864.2857,1758146961.628,1758146961628,0.9309999942779541,931
824.3956,764.7619,796.1905,819.5604,1758146961.629,1758146961629,0.931999921798706,932
716.4103,568.5348,792.5641,737.3626,1758146961.63,1758146961630,0.9330000877380371,933
766.77655,830.0366,800.6227,750.2564,1758146961.631,1758146961631,0.9340000152587891,934
880.80585,985.16486,807.8755,842.9304,1758146961.631,1758146961631,0.9340000152587891,934
844.1392,773.6264,810.293,843.3333,1758146961.632,1758146961632,0.934999942779541,935
707.5458,659.59705,807.0696,736.1539,1758146961.632,1758146961632,0.934999942779541,935
711.5751,755.09155,804.2491,714.7985,1758146961.698,1758146961698,1.000999927520752,1001
835.2747,932.381,809.0842,805.4579,1758146961.699,1758146961699,1.001999855041504,1002
852.1978,917.8755,817.1429,852.6007,1758146961.699,1758146961699,1.001999855041504,1002
712.381,598.7546,811.9048,753.0769,1758146961.7,1758146961700,1.003000020980835,1003
656.77655,667.6557,806.6667,686.99634,1758146961.701,1758146961701,1.003999948501587,1004
776.04395,979.92676,809.89014,767.5824,1758146961.701,1758146961701,1.003999948501587,1004
848.97437,889.67035,819.15753,838.0952,1758146961.702,1758146961702,1.0049998760223389,1005
735.34796,615.6777,820.3663,766.77655,1758146961.702,1758146961702,1.0049998760223389,1005
639.0476,679.34064,814.3223,679.7436,1758146961.702,1758146961702,1.0049998760223389,1005
725.6777,806.26373,811.0989,731.31866,1758146961.702,1758146961702,1.0049998760223389,1005
838.9011,884.43225,816.337,827.619,1758146961.703,1758146961703,1.00600004196167,1006
762.3443,730.5128,821.1722,788.1319,1758146961.703,1758146961703,1.00600004196167,1006
642.674,621.31866,816.7399,693.8461,1758146961.729,1758146961729,1.0320000648498535,1032
692.6374,773.6264,815.5311,712.381,1758146961.729,1758146961729,1.0320000648498535,1032
818.7546,907.3993,820.7692,805.4579,1758146961.73,1758146961730,1.0329999923706055,1033
797.3993,792.5641,821.978,814.3223,1758146961.73,1758146961730,1.0329999923706055,1033
659.19415,682.5641,814.3223,718.022,1758146961.73,1758146961730,1.0329999923706055,1033
654.7619,793.36993,810.293,691.4286,1758146961.731,1758146961731,1.0339999198913574,1034
796.1905,913.44324,814.3223,789.7436,1758146961.731,1758146961731,1.0339999198913574,1034
834.87177,827.2161,819.15753,842.52747,1758146961.731,1758146961731,1.0339999198913574,1034
705.12823,632.1978,815.9341,756.30035,1758146961.732,1758146961732,1.0350000858306885,1035
653.95605,655.16486,811.0989,699.89014,1758146961.732,1758146961732,1.0350000858306885,1035
775.2381,821.1722,811.0989,778.46155,1758146961.732,1758146961732,1.0350000858306885,1035
871.9414,880.40295,815.5311,864.2857,1758146961.733,1758146961733,1.0360000133514404,1036
772.01465,749.45056,813.1135,806.6667,1758146961.791,1758146961791,1.0939998626708984,1094
668.86444,678.1319,802.23444,719.6337,1758146961.792,1758146961792,1.0950000286102295,1095
757.1062,825.6044,801.8315,766.3736,1758146961.793,1758146961793,1.0959999561309814,1096
881.2088,873.5531,808.68134,868.315,1758146961.793,1758146961793,1.0959999561309814,1096
810.293,771.6117,806.26373,839.707,1758146961.793,1758146961793,1.0959999561309814,1096
678.5348,766.3736,797.8022,738.5714,1758146961.793,1758146961793,1.0959999561309814,1096
724.4689,805.8608,798.60803,752.674,1758146961.795,1758146961795,1.0980000495910645,1098
863.0769,879.59705,806.6667,850.18317,1758146961.795,1758146961795,1.0980000495910645,1098
860.2564,839.707,805.8608,859.45056,1758146961.796,1758146961796,1.0989999771118164,1099
731.7216,632.1978,796.5934,761.9414,1758146961.796,1758146961796,1.0989999771118164,1099
709.9634,624.1392,792.1612,721.2454,1758146961.797,1758146961797,1.0999999046325684,1100
844.5421,868.315,798.60803,813.91943,1758146961.797,1758146961797,1.0999999046325684,1100
902.96704,901.3553,807.0696,887.6557,1758146961.835,1758146961835,1.1380000114440918,1138
773.6264,718.8278,803.8461,815.12823,1758146961.835,1758146961835,1.1380000114440918,1138
688.60803,699.4872,799.81683,745.0183,1758146961.836,1758146961836,1.1389999389648438,1139
784.90845,819.5604,804.2491,809.0842,1758146961.836,1758146961836,1.1389999389648438,1139
882.01465,932.7839,805.8608,887.25275,1758146961.836,1758146961836,1.1389999389648438,1139
794.17584,823.9927,805.4579,837.28937,1758146961.837,1758146961837,1.1399998664855957,1140
687.8022,670.07324,801.02563,745.82416,1758146961.837,1758146961837,1.1399998664855957,1140
759.12085,739.3773,796.1905,770.80585,1758146961.837,1758146961837,1.1399998664855957,1140
884.83514,887.6557,803.44324,866.7033,1758146961.838,1758146961838,1.1410000324249268,1141
839.304,807.0696,809.0842,856.2271,1758146961.838,1758146961838,1.1410000324249268,1141
711.978,651.13556,802.23444,761.9414,1758146961.838,1758146961838,1.1410000324249268,1141
733.73627,737.76556,797.8022,757.50916,1758146961.839,1758146961839,1.1419999599456787,1142
866.30035,955.7509,801.8315,854.21246,1758146961.876,1758146961876,1.178999900817871,1179
877.1795,860.2564,803.44324,883.22345,1758146961.876,1758146961876,1.178999900817871,1179
751.4652,684.17584,797.8022,791.75824,1758146961.877,1758146961877,1.1800000667572021,1180
720.4396,718.022,791.75824,746.2271,1758146961.877,1758146961877,1.1800000667572021,1180
839.304,855.0183,792.96704,824.3956,1758146961.877,1758146961877,1.1800000667572021,1180
910.6227,963.8095,798.60803,892.49084,1758146961.878,1758146961878,1.180999994277954,1181
801.8315,743.4066,794.17584,813.5165,1758146961.878,1758146961878,1.180999994277954,1181
716.8132,651.53845,788.5348,729.707,1758146961.878,1758146961878,1.180999994277954,1181
816.337,860.2564,790.54944,787.72894,1758146961.88,1758146961880,1.183000087738037,1183
921.0989,867.50916,793.7729,871.9414,1758146961.88,1758146961880,1.183000087738037,1183
838.9011,767.98535,799.81683,830.84247,1758146961.881,1758146961881,1.184000015258789,1184
727.28937,694.65204,799.011,744.61536,1758146961.881,1758146961881,1.184000015258789,1184
783.69965,797.3993,792.96704,767.5824,1758146961.95,1758146961950,1.253000020980835,1253
900.54944,921.0989,796.1905,852.6007,1758146961.951,1758146961951,1.253999948501587,1254
867.50916,804.65204,801.8315,850.18317,1758146961.952,1758146961952,1.2549998760223389,1255
740.989,687.8022,802.23444,759.92676,1758146961.952,1758146961952,1.2549998760223389,1255
749.0476,807.0696,799.81683,740.989,1758146961.953,1758146961953,1.25600004196167,1256
875.9707,923.91943,798.60803,838.0952,1758146961.953,1758146961953,1.25600004196167,1256
898.93774,890.87915,800.2198,879.59705,1758146961.954,1758146961954,1.2569999694824219,1257
768.7912,648.71796,799.41394,788.1319,1758146961.955,1758146961955,1.2579998970031738,1258
720.0366,626.1539,795.78754,732.1245,1758146961.955,1758146961955,1.2579998970031738,1258
840.9158,878.3883,799.41394,813.1135,1758146961.956,1758146961956,1.2590000629425049,1259
919.4872,917.0696,807.47253,895.7143,1758146961.956,1758146961956,1.2590000629425049,1259
806.6667,749.45056,804.65204,823.5897,1758146961.957,1758146961957,1.2599999904632568,1260
712.381,690.2198,800.2198,737.3626,1758146961.994,1758146961994,1.2969999313354492,1297
805.8608,838.0952,801.8315,790.9524,1758146961.994,1758146961994,1.2969999313354492,1297
917.8755,935.2015,807.47253,886.04395,1758146961.995,1758146961995,1.2979998588562012,1298
838.9011,753.0769,808.68134,850.18317,1758146961.995,1758146961995,1.2979998588562012,1298
711.1722,705.9341,802.23444,747.03296,1758146961.995,1758146961995,1.2979998588562012,1298
761.53845,884.83514,798.60803,761.13556,1758146961.996,1758146961996,1.2990000247955322,1299
894.10254,929.15753,801.8315,862.27106,1758146961.996,1758146961996,1.2990000247955322,1299
866.7033,806.6667,803.0403,871.13556,1758146961.997,1758146961997,1.2999999523162842,1300
726.08057,693.44324,797.8022,769.59705,1758146961.997,1758146961997,1.2999999523162842,1300
716.0073,735.7509,791.3553,734.1392,1758146961.997,1758146961997,1.2999999523162842,1300
847.76556,862.674,796.5934,827.2161,1758146961.999,1758146961999,1.3020000457763672,1302
889.2674,865.4945,805.8608,880.40295,1758146961.999,1758146961999,1.3020000457763672,1302
761.13556,727.6923,803.8461,795.38464,1758146962.03,1758146962030,1.3329999446868896,1333
700.293,721.2454,802.23444,734.1392,1758146962.03,1758146962030,1.3329999446868896,1333
814.3223,882.4176,805.05493,805.4579,1758146962.031,1758146962031,1.3339998722076416,1334
906.1905,897.72894,807.47253,887.6557,1758146962.032,1758146962032,1.3350000381469727,1335
803.8461,755.09155,807.0696,824.3956,1758146962.032,1758146962032,1.3350000381469727,1335
703.91943,751.4652,799.41394,733.3333,1758146962.033,1758146962033,1.3359999656677246,1336
788.93774,863.0769,798.20514,779.2674,1758146962.033,1758146962033,1.3359999656677246,1336
902.96704,852.6007,805.4579,876.3736,1758146962.034,1758146962034,1.3369998931884766,1337
832.0513,739.7802,807.8755,846.1539,1758146962.034,1758146962034,1.3369998931884766,1337
704.3223,692.23444,799.81683,743.4066,1758146962.035,1758146962035,1.3380000591278076,1338
740.18317,824.7985,793.36993,750.2564,1758146962.035,1758146962035,1.3380000591278076,1338
873.1502,952.52747,797.8022,852.1978,1758146962.036,1758146962036,1.3389999866485596,1339
876.77655,829.2308,804.2491,873.5531,1758146962.077,1758146962077,1.3799998760223389,1380
738.5714,679.7436,799.41394,775.2381,1758146962.077,1758146962077,1.3799998760223389,1380
712.381,753.0769,794.57874,734.94507,1758146962.078,1758146962078,1.38100004196167,1381
843.3333,855.42126,797.8022,825.2015,1758146962.078,1758146962078,1.38100004196167,1381
904.9817,884.83514,799.41394,888.0586,1758146962.078,1758146962078,1.38100004196167,1381
787.72894,828.4249,799.41394,806.6667,1758146962.079,1758146962079,1.3819999694824219,1382
711.978,684.57874,795.38464,734.94507,1758146962.079,1758146962079,1.3819999694824219,1382
817.5458,829.6337,791.3553,801.02563,1758146962.079,1758146962079,1.3819999694824219,1382
918.68134,961.79486,799.41394,887.6557,1758146962.08,1758146962080,1.3829998970031738,1383
821.978,705.9341,803.44324,833.663,1758146962.08,1758146962080,1.3829998970031738,1383
704.3223,652.74725,797.3993,736.55676,1758146962.08,1758146962080,1.3829998970031738,1383
779.67035,835.6777,796.1905,775.64105,1758146962.081,1758146962081,1.3840000629425049,1384
904.57874,954.5421,803.8461,879.59705,1758146962.12,1758146962120,1.4229998588562012,1423
857.03296,819.15753,808.68134,863.0769,1758146962.12,1758146962120,1.4229998588562012,1423
727.28937,689.41394,805.05493,757.9121,1758146962.121,1758146962121,1.4240000247955322,1424
748.6447,744.21246,801.8315,752.27106,1758146962.121,1758146962121,1.4240000247955322,1424
886.8498,916.6667,805.8608,854.21246,1758146962.121,1758146962121,1.4240000247955322,1424
896.1172,915.8608,811.50183,889.2674,1758146962.121,1758146962121,1.4240000247955322,1424
749.45056,690.2198,805.4579,786.9231,1758146962.122,1758146962122,1.4249999523162842,1425
707.1429,689.011,799.011,728.9011,1758146962.122,1758146962122,1.4249999523162842,1425
837.28937,872.3443,806.26373,819.15753,1758146962.122,1758146962122,1.4249999523162842,1425
909.81683,915.8608,816.337,894.10254,1758146962.123,1758146962123,1.4259998798370361,1426
790.14655,738.5714,812.3077,816.337,1758146962.123,1758146962123,1.4259998798370361,1426
700.293,640.65936,810.696,732.1245,1758146962.123,1758146962123,1.4259998798370361,1426
802.6374,870.32965,812.71063,791.3553,1758146962.183,1758146962183,1.4860000610351562,1486
914.2491,963.8095,811.0989,882.8205,1758146962.184,1758146962184,1.4869999885559082,1487
826.8132,755.09155,806.6667,835.6777,1758146962.184,1758146962184,1.4869999885559082,1487
702.3077,643.8828,797.8022,735.7509,1758146962.184,1758146962184,1.4869999885559082,1487
764.7619,843.73627,792.96704,761.53845,1758146962.185,1758146962185,1.4879999160766602,1488
900.14655,1011.75824,801.8315,869.92676,1758146962.185,1758146962185,1.4879999160766602,1488
865.09155,826.8132,809.4872,869.12085,1758146962.185,1758146962185,1.4879999160766602,1488
724.0659,638.6447,801.4286,753.8828,1758146962.186,1758146962186,1.4890000820159912,1489
726.08057,740.58606,796.1905,728.49817,1758146962.186,1758146962186,1.4890000820159912,1489
854.61536,873.95605,799.81683,829.2308,1758146962.186,1758146962186,1.4890000820159912,1489
882.4176,836.4835,803.8461,878.3883,1758146962.186,1758146962186,1.4890000820159912,1489
753.0769,692.23444,803.0403,781.685,1758146962.187,1758146962187,1.4900000095367432,1490
703.5165,715.2015,799.011,719.6337,1758146962.228,1758146962228,1.5309998989105225,1531
831.2454,902.1612,801.4286,808.68134,1758146962.229,1758146962229,1.5320000648498535,1532
912.23444,917.47253,809.0842,888.0586,1758146962.23,1758146962230,1.5329999923706055,1533
792.5641,720.84247,807.8755,809.89014,1758146962.231,1758146962231,1.5339999198913574,1534
693.8461,708.7546,801.8315,717.619,1758146962.231,1758146962231,1.5339999198913574,1534
793.7729,934.3956,799.011,772.8205,1758146962.231,1758146962231,1.5339999198913574,1534
915.8608,964.21246,803.8461,873.5531,1758146962.232,1758146962232,1.5350000858306885,1535
836.4835,667.6557,806.6667,832.8571,1758146962.232,1758146962232,1.5350000858306885,1535
709.15753,664.83514,799.81683,726.4835,1758146962.232,1758146962232,1.5350000858306885,1535
757.50916,851.79486,799.41394,747.03296,1758146962.233,1758146962233,1.5360000133514404,1536
889.67035,869.92676,805.4579,846.55676,1758146962.233,1758146962233,1.5360000133514404,1536
869.5238,759.92676,807.47253,850.58606,1758146962.233,1758146962233,1.5360000133514404,1536
726.8865,651.53845,799.81683,751.4652,1758146962.26,1758146962260,1.562999963760376,1563
715.2015,761.9414,796.1905,728.49817,1758146962.261,1758146962261,1.563999891281128,1564
855.42126,906.99634,802.6374,826.8132,1758146962.261,1758146962261,1.563999891281128,1564
906.5934,857.8388,809.89014,881.6117,1758146962.261,1758146962261,1.563999891281128,1564
775.2381,758.315,806.6667,789.34064,1758146962.262,1758146962262,1.565000057220459,1565
706.7399,815.9341,799.41394,721.2454,1758146962.262,1758146962262,1.565000057220459,1565
824.3956,875.56775,799.011,800.6227,1758146962.262,1758146962262,1.565000057220459,1565
916.26373,871.13556,806.26373,885.64105,1758146962.263,1758146962263,1.565999984741211,1566
802.23444,732.52747,807.47253,820.3663,1758146962.263,1758146962263,1.565999984741211,1566
689.81683,639.0476,799.011,722.4542,1758146962.263,1758146962263,1.565999984741211,1566
779.2674,828.8278,800.2198,765.16486,1758146962.264,1758146962264,1.566999912261963,1567
906.5934,961.79486,805.8608,866.7033,1758146962.264,1758146962264,1.566999912261963,1567
842.52747,830.0366,802.6374,839.304,1758146962.295,1758146962295,1.5980000495910645,1598
712.7839,664.0293,796.5934,732.9304,1758146962.295,1758146962295,1.5980000495910645,1598
748.6447,751.06226,798.60803,737.76556,1758146962.296,1758146962296,1.5989999771118164,1599
883.6264,895.7143,805.8608,844.1392,1758146962.296,1758146962296,1.5989999771118164,1599
875.9707,873.1502,810.696,867.1062,1758146962.298,1758146962298,1.6010000705718994,1601
736.9597,768.3883,805.8608,767.5824,1758146962.298,1758146962298,1.6010000705718994,1601
711.5751,743.4066,799.011,722.8571,1758146962.298,1758146962298,1.6010000705718994,1601
842.52747,816.337,801.8315,812.3077,1758146962.299,1758146962299,1.6019999980926514,1602
898.93774,849.7802,804.2491,875.9707,1758146962.299,1758146962299,1.6019999980926514,1602
768.7912,735.7509,801.02563,789.34064,1758146962.299,1758146962299,1.6019999980926514,1602
686.99634,682.5641,796.5934,708.7546,1758146962.3,1758146962300,1.6029999256134033,1603
799.81683,892.8938,801.4286,783.69965,1758146962.3,1758146962300,1.6029999256134033,1603
909.011,951.31866,806.6667,881.6117,1758146962.328,1758146962328,1.63100004196167,1631
811.50183,750.65936,801.02563,823.1868,1758146962.328,1758146962328,1.63100004196167,1631
695.8608,695.05493,798.20514,726.4835,1758146962.329,1758146962329,1.6319999694824219,1632
773.22345,833.2601,804.65204,768.7912,1758146962.329,1758146962329,1.6319999694824219,1632
899.7436,985.56775,806.26373,866.7033,1758146962.329,1758146962329,1.6319999694824219,1632
848.5714,851.79486,806.26373,847.76556,1758146962.33,1758146962330,1.6329998970031738,1633
710.7692,661.6117,799.81683,740.989,1758146962.33,1758146962330,1.6329998970031738,1633
729.304,733.73627,790.14655,723.663,1758146962.33,1758146962330,1.6329998970031738,1633
874.35895,900.14655,796.99634,826.8132,1758146962.331,1758146962331,1.6340000629425049,1634
883.6264,812.3077,804.65204,859.0476,1758146962.331,1758146962331,1.6340000629425049,1634
737.3626,634.61536,798.60803,753.0769,1758146962.331,1758146962331,1.6340000629425049,1634
703.5165,676.1172,793.36993,706.7399,1758146962.331,1758146962331,1.6340000629425049,1634
836.4835,927.5458,796.5934,799.81683,1758146962.396,1758146962396,1.6989998817443848,1699
912.6374,965.0183,802.6374,876.77655,1758146962.396,1758146962396,1.6989998817443848,1699
792.1612,732.9304,799.41394,800.2198,1758146962.397,1758146962397,1.7000000476837158,1700
697.0696,664.83514,793.7729,715.2015,1758146962.397,1758146962397,1.7000000476837158,1700
802.23444,876.3736,799.81683,780.4762,1758146962.397,1758146962397,1.7000000476837158,1700
915.8608,1017.8022,805.05493,877.1795,1758146962.398,1758146962398,1.7009999752044678,1701
826.0073,779.2674,803.8461,828.022,1758146962.399,1758146962399,1.7019999027252197,1702
699.0842,571.75824,798.20514,723.663,1758146962.399,1758146962399,1.7019999027252197,1702
755.89746,759.5238,795.78754,746.63007,1758146962.4,1758146962400,1.7030000686645508,1703
893.69965,942.4542,805.05493,857.03296,1758146962.4,1758146962400,1.7030000686645508,1703
859.85345,789.34064,807.8755,858.24176,1758146962.4,1758146962400,1.7030000686645508,1703
716.8132,633.8095,799.011,749.0476,1758146962.401,1758146962401,1.7039999961853027,1704
720.0366,781.685,796.5934,729.304,1758146962.449,1758146962449,1.751999855041504,1752
858.24176,966.63007,801.8315,835.6777,1758146962.449,1758146962449,1.751999855041504,1752
889.67035,883.22345,810.293,880.0,1758146962.45,1758146962450,1.753000020980835,1753
755.09155,686.99634,806.26373,782.8938,1758146962.45,1758146962450,1.753000020980835,1753
698.68134,726.8865,795.78754,720.84247,1758146962.45,1758146962450,1.753000020980835,1753
823.1868,975.89746,802.23444,803.44324,1758146962.451,1758146962451,1.753999948501587,1754
906.99634,925.9341,813.91943,890.07324,1758146962.451,1758146962451,1.753999948501587,1754
787.326,692.23444,809.0842,812.71063,1758146962.451,1758146962451,1.753999948501587,1754
684.57874,726.4835,798.60803,719.6337,1758146962.452,1758146962452,1.7549998760223389,1755
775.2381,801.8315,800.6227,772.01465,1758146962.452,1758146962452,1.7549998760223389,1755
899.34064,954.5421,811.50183,869.5238,1758146962.452,1758146962452,1.7549998760223389,1755
825.2015,780.87915,810.696,834.87177,1758146962.453,1758146962453,1.75600004196167,1756
693.8461,606.8132,803.8461,731.31866,1758146962.488,1758146962488,1.7909998893737793,1791
748.6447,832.4542,801.4286,750.2564,1758146962.489,1758146962489,1.7920000553131104,1792
888.86444,947.28937,804.65204,854.21246,1758146962.489,1758146962489,1.7920000553131104,1792
868.71796,811.50183,808.68134,862.674,1758146962.489,1758146962489,1.7920000553131104,1792
727.6923,693.8461,804.2491,760.7326,1758146962.49,1758146962490,1.7929999828338623,1793
711.5751,787.326,797.3993,724.4689,1758146962.49,1758146962490,1.7929999828338623,1793
844.1392,911.02563,796.99634,814.3223,1758146962.49,1758146962490,1.7929999828338623,1793
896.9231,833.2601,800.2198,867.1062,1758146962.491,1758146962491,1.7939999103546143,1794
768.3883,682.96704,795.78754,772.4176,1758146962.492,1758146962492,1.7950000762939453,1795
699.89014,726.4835,790.9524,702.3077,1758146962.493,1758146962493,1.7960000038146973,1796
815.9341,904.17584,798.60803,791.75824,1758146962.493,1758146962493,1.7960000038146973,1796
904.9817,911.8315,809.0842,890.87915,1758146962.493,1758146962493,1.7960000038146973,1796
791.3553,731.7216,809.89014,832.8571,1758146962.556,1758146962556,1.8589999675750732,1859
671.685,690.6227,805.4579,739.7802,1758146962.556,1758146962556,1.8589999675750732,1859
751.8681,887.25275,805.05493,780.87915,1758146962.556,1758146962556,1.8589999675750732,1859
881.2088,943.663,809.0842,880.0,1758146962.557,1758146962557,1.8599998950958252,1860
824.3956,772.4176,807.47253,853.00366,1758146962.557,1758146962557,1.8599998950958252,1860
696.26373,743.8095,802.23444,747.4359,1758146962.557,1758146962557,1.8599998950958252,1860
730.9158,762.74725,801.4286,745.82416,1758146962.558,1758146962558,1.8610000610351562,1861
866.7033,851.79486,806.6667,846.55676,1758146962.558,1758146962558,1.8610000610351562,1861
867.1062,881.2088,810.293,873.1502,1758146962.558,1758146962558,1.8610000610351562,1861
726.8865,624.94507,805.8608,764.7619,1758146962.558,1758146962558,1.8610000610351562,1861
702.3077,718.022,801.4286,717.2161,1758146962.559,1758146962559,1.8619999885559082,1862
840.10986,892.49084,805.4579,818.7546,1758146962.559,1758146962559,1.8619999885559082,1862
898.1319,850.18317,809.0842,879.59705,1758146962.586,1758146962586,1.8889999389648438,1889
764.35895,718.4249,801.8315,788.1319,1758146962.586,1758146962586,1.8889999389648438,1889
686.5934,699.0842,793.36993,719.2308,1758146962.587,1758146962587,1.8899998664855957,1890
807.8755,847.76556,796.99634,792.96704,1758146962.587,1758146962587,1.8899998664855957,1890
915.05493,983.95605,804.2491,882.4176,1758146962.587,1758146962587,1.8899998664855957,1890
818.7546,827.619,801.8315,827.619,1758146962.588,1758146962588,1.8910000324249268,1891
703.1135,690.6227,795.78754,726.08057,1758146962.588,1758146962588,1.8910000324249268,1891
767.98535,811.0989,796.1905,752.27106,1758146962.588,1758146962588,1.8910000324249268,1891
894.5055,843.73627,800.2198,854.21246,1758146962.588,1758146962588,1.8910000324249268,1891
851.39197,734.1392,801.4286,846.1539,1758146962.589,1758146962589,1.8919999599456787,1892
718.8278,676.52014,799.81683,741.79486,1758146962.59,1758146962590,1.8929998874664307,1893
735.34796,777.6557,797.8022,730.5128,1758146962.591,1758146962591,1.8940000534057617,1894
871.13556,922.71063,798.60803,833.663,1758146962.64,1758146962640,1.943000078201294,1943
887.25275,856.63007,795.38464,864.2857,1758146962.641,1758146962641,1.944000005722046,1944
750.65936,687.8022,789.7436,761.53845,1758146962.641,1758146962641,1.944000005722046,1944
709.9634,689.81683,788.93774,708.7546,1758146962.642,1758146962642,1.9449999332427979,1945
840.10986,939.6337,794.57874,797.3993,1758146962.642,1758146962642,1.9449999332427979,1945
923.1135,1020.6227,803.44324,882.4176,1758146962.642,1758146962642,1.9449999332427979,1945
798.60803,729.304,801.8315,807.8755,1758146962.643,1758146962643,1.9459998607635498,1946
695.4579,604.7985,795.78754,718.8278,1758146962.643,1758146962643,1.9459998607635498,1946
800.2198,861.8681,798.20514,787.326,1758146962.643,1758146962643,1.9459998607635498,1946
921.0989,934.3956,811.0989,890.07324,1758146962.644,1758146962644,1.9470000267028809,1947
836.4835,687.3993,815.12823,843.3333,1758146962.644,1758146962644,1.9470000267028809,1947
711.1722,642.27106,803.8461,740.58606,1758146962.644,1758146962644,1.9470000267028809,1947
765.9707,859.0476,801.02563,763.95605,1758146962.682,1758146962682,1.9849998950958252,1985
898.5348,959.7802,807.0696,869.5238,1758146962.682,1758146962682,1.9849998950958252,1985
863.8828,803.8461,806.6667,867.9121,1758146962.683,1758146962683,1.9860000610351562,1986
724.4689,652.74725,801.4286,759.5238,1758146962.683,1758146962683,1.9860000610351562,1986
723.663,806.26373,803.44324,736.55676,1758146962.683,1758146962683,1.9860000610351562,1986
858.6447,1014.9817,813.1135,837.28937,1758146962.684,1758146962684,1.9869999885559082,1987
893.2967,866.7033,817.9487,881.6117,1758146962.684,1758146962684,1.9869999885559082,1987
752.674,635.42126,813.1135,783.69965,1758146962.685,1758146962685,1.9879999160766602,1988
689.81683,662.4176,805.8608,720.84247,1758146962.685,1758146962685,1.9879999160766602,1988
813.5165,879.59705,808.68134,799.41394,1758146962.685,1758146962685,1.9879999160766602,1988
908.60803,954.1392,816.7399,887.25275,1758146962.685,1758146962685,1.9879999160766602,1988
794.57874,704.7253,815.5311,816.337,1758146962.686,1758146962686,1.9890000820159912,1989
690.2198,719.6337,807.0696,719.2308,1758146962.719,1758146962719,2.0220000743865967,2022
785.31134,901.75824,806.6667,773.22345,1758146962.719,1758146962719,2.0220000743865967,2022
909.011,923.1135,809.0842,874.7619,1758146962.72,1758146962720,2.0230000019073486,2023
837.28937,749.0476,807.0696,843.3333,1758146962.721,1758146962721,2.0239999294281006,2024
703.91943,676.1172,801.8315,743.4066,1758146962.721,1758146962721,2.0239999294281006,2024
746.63007,884.83514,797.3993,754.68866,1758146962.722,1758146962722,2.0249998569488525,2025
881.6117,944.0659,803.8461,857.03296,1758146962.722,1758146962722,2.0249998569488525,2025
866.30035,809.4872,810.696,869.12085,1758146962.723,1758146962723,2.0260000228881836,2026
722.8571,681.75824,804.2491,763.5531,1758146962.723,1758146962723,2.0260000228881836,2026
701.50183,686.5934,794.57874,722.8571,1758146962.724,1758146962724,2.0269999504089355,2027
839.707,868.315,793.7729,815.12823,1758146962.724,1758146962724,2.0269999504089355,2027
887.25275,867.9121,801.8315,874.7619,1758146962.725,1758146962725,2.0279998779296875,2028
750.2564,709.9634,802.6374,783.69965,1758146962.782,1758146962782,2.0850000381469727,2085
681.3553,694.65204,798.20514,709.9634,1758146962.782,1758146962782,2.0850000381469727,2085
797.8022,859.0476,800.2198,782.8938,1758146962.783,1758146962783,2.0859999656677246,2086
898.1319,917.47253,804.65204,871.13556,1758146962.783,1758146962783,2.0859999656677246,2086
799.011,794.57874,803.44324,812.71063,1758146962.783,1758146962783,2.0859999656677246,2086
690.2198,727.6923,799.81683,721.2454,1758146962.784,1758146962784,2.0869998931884766,2087
770.0,831.2454,797.8022,759.12085,1758146962.784,1758146962784,2.0869998931884766,2087
890.87915,857.8388,800.2198,855.0183,1758146962.785,1758146962785,2.0880000591278076,2088
831.2454,736.55676,804.2491,836.4835,1758146962.785,1758146962785,2.0880000591278076,2088
701.9048,701.50183,800.2198,738.1685,1758146962.786,1758146962786,2.0889999866485596,2089
734.94507,811.0989,796.99634,738.1685,1758146962.786,1758146962786,2.0889999866485596,2089
869.5238,908.60803,800.2198,837.6923,1758146962.786,1758146962786,2.0889999866485596,2089
880.80585,872.74725,806.6667,871.53845,1758146962.818,1758146962818,2.121000051498413,2121
750.65936,716.8132,805.8608,779.2674,1758146962.819,1758146962819,2.121999979019165,2122
709.9634,701.50183,800.2198,727.6923,1758146962.82,1758146962820,2.122999906539917,2123
837.28937,894.90845,803.0403,813.5165,1758146962.821,1758146962821,2.124000072479248,2124
900.9524,904.9817,806.26373,878.3883,1758146962.821,1758146962821,2.124000072479248,2124
778.0586,774.0293,807.0696,797.3993,1758146962.821,1758146962821,2.124000072479248,2124
695.4579,700.293,805.8608,720.0366,1758146962.822,1758146962822,2.125,2125
800.6227,829.6337,803.8461,786.1172,1758146962.822,1758146962822,2.125,2125
909.81683,960.18317,810.293,883.22345,1758146962.822,1758146962822,2.125,2125
814.7253,704.7253,809.4872,823.5897,1758146962.823,1758146962823,2.125999927520752,2126
694.2491,609.6337,802.23444,716.8132,1758146962.823,1758146962823,2.125999927520752,2126
761.9414,805.05493,801.4286,747.4359,1758146962.823,1758146962823,2.125999927520752,2126
893.2967,932.381,808.2784,850.58606,1758146962.856,1758146962856,2.1589999198913574,2159
853.00366,815.9341,809.89014,846.1539,1758146962.856,1758146962856,2.1589999198913574,2159
715.2015,679.34064,803.0403,745.0183,1758146962.856,1758146962856,2.1589999198913574,2159
729.304,764.7619,803.44324,729.304,1758146962.857,1758146962857,2.1600000858306885,2160
871.53845,967.8388,805.4579,826.8132,1758146962.857,1758146962857,2.1600000858306885,2160
895.31134,960.989,804.65204,869.5238,1758146962.857,1758146962857,2.1600000858306885,2160
757.50916,726.4835,797.8022,773.22345,1758146962.858,1758146962858,2.1610000133514404,2161
701.50183,628.97437,791.75824,710.3663,1758146962.858,1758146962858,2.1610000133514404,2161
822.381,848.1685,796.99634,793.36993,1758146962.858,1758146962858,2.1610000133514404,2161
904.57874,902.5641,805.8608,872.74725,1758146962.859,1758146962859,2.1619999408721924,2162
786.52014,739.7802,807.0696,798.60803,1758146962.859,1758146962859,2.1619999408721924,2162
686.5934,708.3516,799.41394,711.978,1758146962.859,1758146962859,2.1619999408721924,2162
782.49084,817.1429,798.20514,772.01465,1758146962.92,1758146962920,2.2230000495910645,2223
906.1905,939.2308,803.8461,872.74725,1758146962.92,1758146962920,2.2230000495910645,2223
829.2308,785.7143,800.2198,828.022,1758146962.921,1758146962921,2.2239999771118164,2224
700.696,607.2161,795.78754,722.8571,1758146962.921,1758146962921,2.2239999771118164,2224
749.0476,836.08057,797.3993,740.989,1758146962.922,1758146962922,2.2249999046325684,2225
887.25275,1080.6593,798.60803,849.3773,1758146962.923,1758146962923,2.2260000705718994,2226
860.65936,788.1319,801.8315,859.85345,1758146962.923,1758146962923,2.2260000705718994,2226
716.8132,588.2784,800.2198,755.89746,1758146962.923,1758146962923,2.2260000705718994,2226
716.8132,783.69965,794.57874,729.707,1758146962.924,1758146962924,2.2269999980926514,2227
848.97437,840.5128,795.78754,824.7985,1758146962.924,1758146962924,2.2269999980926514,2227
887.6557,817.9487,804.2491,877.1795,1758146962.924,1758146962924,2.2269999980926514,2227
753.47986,718.8278,805.4579,788.1319,1758146962.925,1758146962925,2.2279999256134033,2228
689.81683,692.6374,801.4286,721.2454,1758146962.952,1758146962952,2.254999876022339,2255
812.3077,887.25275,800.2198,798.60803,1758146962.953,1758146962953,2.25600004196167,2256
906.5934,950.5128,806.26373,884.43225,1758146962.953,1758146962953,2.25600004196167,2256
792.5641,668.86444,800.2198,811.9048,1758146962.953,1758146962953,2.25600004196167,2256
683.36993,683.7729,794.17584,718.8278,1758146962.954,1758146962954,2.256999969482422,2257
775.2381,940.0366,801.4286,774.0293,1758146962.954,1758146962954,2.256999969482422,2257
898.1319,941.6484,804.2491,874.35895,1758146962.954,1758146962954,2.256999969482422,2257
830.0366,704.7253,805.8608,843.73627,1758146962.955,1758146962955,2.257999897003174,2258
699.89014,623.73627,803.0403,739.3773,1758146962.955,1758146962955,2.257999897003174,2258
738.1685,820.3663,795.38464,745.42126,1758146962.955,1758146962955,2.257999897003174,2258
877.1795,957.76556,800.6227,851.39197,1758146962.956,1758146962956,2.259000062942505,2259
873.1502,808.2784,810.696,869.5238,1758146962.956,1758146962956,2.259000062942505,2259
735.7509,666.8498,805.4579,765.16486,1758146963.02,1758146963020,2.322999954223633,2323
716.4103,757.1062,800.2198,727.6923,1758146963.02,1758146963020,2.322999954223633,2323
850.58606,927.5458,806.6667,822.7839,1758146963.02,1758146963020,2.322999954223633,2323
903.7729,880.0,810.696,884.83514,1758146963.021,1758146963021,2.3239998817443848,2324
776.8498,735.7509,807.0696,799.81683,1758146963.021,1758146963021,2.3239998817443848,2324
699.89014,783.2967,800.2198,728.49817,1758146963.021,1758146963021,2.3239998817443848,2324
809.89014,886.04395,802.6374,799.41394,1758146963.023,1758146963023,2.3259999752044678,2326
910.2198,923.91943,808.68134,884.83514,1758146963.023,1758146963023,2.3259999752044678,2326
805.05493,736.1539,806.6667,823.1868,1758146963.024,1758146963024,2.3269999027252197,2327
687.3993,593.5165,801.4286,726.08057,1758146963.024,1758146963024,2.3269999027252197,2327
764.35895,804.2491,801.8315,760.7326,1758146963.024,1758146963024,2.3269999027252197,2327
893.69965,917.47253,807.0696,862.27106,1758146963.024,1758146963024,2.3269999027252197,2327
844.94507,807.47253,809.89014,849.7802,1758146963.051,1758146963051,2.3540000915527344,2354
709.5604,700.293,803.0403,745.0183,1758146963.051,1758146963051,2.3540000915527344,2354
730.9158,772.8205,797.8022,739.3773,1758146963.052,1758146963052,2.3550000190734863,2355
870.7326,881.6117,802.6374,845.34796,1758146963.052,1758146963052,2.3550000190734863,2355
879.19415,858.6447,807.0696,869.5238,1758146963.052,1758146963052,2.3550000190734863,2355
742.6007,777.25275,803.44324,766.77655,1758146963.053,1758146963053,2.3559999465942383,2356
708.3516,741.79486,795.38464,720.84247,1758146963.053,1758146963053,2.3559999465942383,2356
835.2747,832.8571,792.5641,808.68134,1758146963.053,1758146963053,2.3559999465942383,2356
903.36993,908.60803,797.8022,876.3736,1758146963.054,1758146963054,2.3569998741149902,2357
781.685,763.95605,798.20514,797.8022,1758146963.054,1758146963054,2.3569998741149902,2357
691.8315,652.74725,793.36993,716.4103,1758146963.054,1758146963054,2.3569998741149902,2357
789.7436,810.696,795.78754,775.64105,1758146963.054,1758146963054,2.3569998741149902,2357
899.7436,945.2747,802.23444,866.7033,1758146963.089,1758146963089,2.3919999599456787,2392
814.3223,788.93774,804.2491,822.381,1758146963.09,1758146963090,2.3929998874664307,2393
692.6374,666.8498,800.2198,724.0659,1758146963.09,1758146963090,2.3929998874664307,2393
753.8828,828.022,798.60803,752.674,1758146963.09,1758146963090,2.3929998874664307,2393
890.87915,926.7399,805.8608,859.85345,1758146963.091,1758146963091,2.3940000534057617,2394
867.1062,869.12085,810.696,862.27106,1758146963.091,1758146963091,2.3940000534057617,2394
730.10986,709.5604,804.2491,759.12085,1758146963.091,1758146963091,2.3940000534057617,2394
727.28937,701.0989,799.81683,735.34796,1758146963.092,1758146963092,2.3949999809265137,2395
858.24176,922.3077,806.6667,834.87177,1758146963.093,1758146963093,2.3959999084472656,2396
884.0293,847.76556,811.50183,876.3736,1758146963.094,1758146963094,2.3970000743865967,2397
747.8388,667.6557,807.0696,778.46155,1758146963.094,1758146963094,2.3970000743865967,2397
692.23444,667.6557,801.8315,719.6337,1758146963.094,1758146963094,2.3970000743865967,2397
818.3516,937.2161,803.44324,806.26373,1758146963.162,1758146963162,2.4649999141693115,2465
908.20514,983.5531,809.0842,890.87915,1758146963.163,1758146963163,2.4660000801086426,2466
792.96704,674.90845,807.8755,817.1429,1758146963.163,1758146963163,2.4660000801086426,2466
692.6374,662.4176,801.02563,723.663,1758146963.164,1758146963164,2.4670000076293945,2467
784.90845,878.7912,799.41394,773.6264,1758146963.164,1758146963164,2.4670000076293945,2467
906.99634,1026.2638,808.68134,874.7619,1758146963.164,1758146963164,2.4670000076293945,2467
832.8571,802.6374,812.71063,838.9011,1758146963.165,1758146963165,2.4679999351501465,2468
701.9048,553.22345,802.6374,735.7509,1758146963.165,1758146963165,2.4679999351501465,2468
754.2857,783.69965,801.4286,755.09155,1758146963.165,1758146963165,2.4679999351501465,2468
889.2674,958.97437,805.4579,857.8388,1758146963.166,1758146963166,2.4689998626708984,2469
870.32965,828.4249,803.44324,861.4652,1758146963.166,1758146963166,2.4689998626708984,2469
736.55676,655.16486,799.011,759.92676,1758146963.166,1758146963166,2.4689998626708984,2469
722.8571,717.619,798.20514,734.1392,1758146963.204,1758146963204,2.506999969482422,2507
858.24176,938.4249,800.6227,833.2601,1758146963.204,1758146963204,2.506999969482422,2507
902.1612,909.011,801.8315,884.43225,1758146963.205,1758146963205,2.507999897003174,2508
767.98535,683.36993,799.81683,788.5348,1758146963.205,1758146963205,2.507999897003174,2508
706.7399,765.56775,797.3993,720.0366,1758146963.205,1758146963205,2.507999897003174,2508
821.978,942.0513,799.81683,794.9817,1758146963.205,1758146963205,2.507999897003174,2508
911.8315,910.2198,802.23444,877.5824,1758146963.206,1758146963206,2.509000062942505,2509
799.011,676.9231,796.1905,807.47253,1758146963.206,1758146963206,2.509000062942505,2509
686.5934,662.01465,792.96704,716.4103,1758146963.206,1758146963206,2.509000062942505,2509
773.6264,813.5165,796.1905,766.3736,1758146963.207,1758146963207,2.509999990463257,2510
895.7143,921.0989,801.02563,863.8828,1758146963.208,1758146963208,2.510999917984009,2511
834.87177,787.326,803.8461,836.08057,1758146963.209,1758146963209,2.51200008392334,2512
706.337,641.4652,797.3993,729.707,1758146963.234,1758146963234,2.5369999408721924,2537
744.61536,775.64105,796.99634,734.1392,1758146963.235,1758146963235,2.5379998683929443,2538
886.4469,942.4542,803.44324,840.9158,1758146963.235,1758146963235,2.5379998683929443,2538
890.87915,843.73627,809.89014,866.30035,1758146963.236,1758146963236,2.5390000343322754,2539
752.674,705.5311,807.47253,769.59705,1758146963.236,1758146963236,2.5390000343322754,2539
721.2454,828.8278,803.44324,736.9597,1758146963.236,1758146963236,2.5390000343322754,2539
842.9304,894.90845,810.293,835.6777,1758146963.237,1758146963237,2.5399999618530273,2540
887.6557,784.5055,819.15753,896.52014,1758146963.237,1758146963237,2.5399999618530273,2540
756.30035,691.8315,815.5311,804.65204,1758146963.237,1758146963237,2.5399999618530273,2540
680.14655,693.0403,804.65204,725.2747,1758146963.238,1758146963238,2.5409998893737793,2541
794.9817,853.8095,804.2491,794.57874,1758146963.238,1758146963238,2.5409998893737793,2541
905.78754,927.5458,813.1135,883.6264,1758146963.238,1758146963238,2.5409998893737793,2541
812.3077,742.1978,813.5165,823.5897,1758146963.304,1758146963304,2.6069998741149902,2607
696.6667,677.72894,806.26373,727.28937,1758146963.305,1758146963305,2.6080000400543213,2608
770.40295,846.1539,803.44324,761.13556,1758146963.305,1758146963305,2.6080000400543213,2608
896.9231,894.5055,806.26373,861.06226,1758146963.305,1758146963305,2.6080000400543213,2608
844.94507,829.2308,805.4579,849.3773,1758146963.306,1758146963306,2.6089999675750732,2609
717.2161,762.74725,799.41394,749.85345,1758146963.306,1758146963306,2.6089999675750732,2609
738.5714,748.24176,798.20514,738.1685,1758146963.306,1758146963306,2.6089999675750732,2609
867.9121,894.5055,803.0403,831.6484,1758146963.307,1758146963307,2.609999895095825,2610
883.22345,888.46155,806.6667,868.71796,1758146963.307,1758146963307,2.609999895095825,2610
745.0183,644.2857,797.8022,768.3883,1758146963.307,1758146963307,2.609999895095825,2610
705.12823,734.5421,791.75824,713.5897,1758146963.308,1758146963308,2.6110000610351562,2611
836.08057,933.9927,799.41394,805.05493,1758146963.308,1758146963308,2.6110000610351562,2611
906.1905,869.92676,806.6667,882.01465,1758146963.333,1758146963333,2.635999917984009,2636
786.52014,722.4542,806.26373,804.65204,1758146963.334,1758146963334,2.63700008392334,2637
699.0842,714.7985,803.44324,724.0659,1758146963.334,1758146963334,2.63700008392334,2637
802.6374,834.0659,806.6667,790.14655,1758146963.334,1758146963334,2.63700008392334,2637
914.2491,984.35895,810.293,888.0586,1758146963.335,1758146963335,2.638000011444092,2638
826.4103,855.0183,810.696,846.55676,1758146963.335,1758146963335,2.638000011444092,2638
704.3223,682.5641,806.26373,745.0183,1758146963.335,1758146963335,2.638000011444092,2638
761.13556,767.1795,804.65204,765.16486,1758146963.336,1758146963336,2.6389999389648438,2639
887.25275,850.18317,810.293,863.47986,1758146963.336,1758146963336,2.6389999389648438,2639
862.674,809.4872,814.3223,864.68866,1758146963.336,1758146963336,2.6389999389648438,2639
732.1245,689.81683,807.8755,764.35895,1758146963.337,1758146963337,2.6399998664855957,2640
730.10986,738.97437,803.44324,738.1685,1758146963.337,1758146963337,2.6399998664855957,2640
864.2857,940.0366,811.0989,834.87177,1758146963.369,1758146963369,2.671999931335449,2672
899.7436,916.26373,815.12823,881.6117,1758146963.37,1758146963370,2.672999858856201,2673
763.95605,756.30035,806.6667,790.14655,1758146963.37,1758146963370,2.672999858856201,2673
701.9048,693.44324,800.6227,730.10986,1758146963.371,1758146963371,2.6740000247955322,2674
817.9487,858.24176,803.44324,808.68134,1758146963.371,1758146963371,2.6740000247955322,2674
905.78754,1004.90845,810.696,889.2674,1758146963.371,1758146963371,2.6740000247955322,2674
791.75824,749.45056,809.4872,817.1429,1758146963.371,1758146963371,2.6740000247955322,2674
685.38464,645.4945,800.6227,724.87177,1758146963.372,1758146963372,2.674999952316284,2675
774.0293,855.0183,800.2198,775.64105,1758146963.372,1758146963372,2.674999952316284,2675
893.2967,894.10254,803.8461,873.5531,1758146963.372,1758146963372,2.674999952316284,2675
817.1429,759.12085,801.4286,832.8571,1758146963.373,1758146963373,2.675999879837036,2676
680.54944,630.989,796.1905,728.0952,1758146963.373,1758146963373,2.675999879837036,2676
726.8865,805.4579,798.20514,742.6007,1758146963.437,1758146963437,2.740000009536743,2740
867.1062,965.82416,805.05493,849.7802,1758146963.438,1758146963438,2.740999937057495,2741
857.8388,821.1722,810.293,865.4945,1758146963.44,1758146963440,2.743000030517578,2743
717.2161,688.60803,806.6667,756.30035,1758146963.44,1758146963440,2.743000030517578,2743
713.5897,765.9707,797.8022,731.7216,1758146963.441,1758146963441,2.74399995803833,2744
857.4359,969.85345,799.81683,832.8571,1758146963.441,1758146963441,2.74399995803833,2744
898.93774,933.9927,808.2784,876.3736,1758146963.441,1758146963441,2.74399995803833,2744
771.6117,659.59705,803.44324,786.9231,1758146963.442,1758146963442,2.744999885559082,2745
693.8461,612.8571,791.3553,710.3663,1758146963.442,1758146963442,2.744999885559082,2745
811.0989,865.4945,793.7729,787.326,1758146963.442,1758146963442,2.744999885559082,2745
915.4579,932.7839,804.2491,881.2088,1758146963.443,1758146963443,2.746000051498413,2746
808.68134,737.76556,802.6374,817.1429,1758146963.443,1758146963443,2.746000051498413,2746
695.05493,689.011,794.57874,717.2161,1758146963.48,1758146963480,2.7829999923706055,2783
772.01465,853.00366,791.75824,759.92676,1758146963.481,1758146963481,2.7839999198913574,2784
897.326,944.4689,798.20514,867.9121,1758146963.481,1758146963481,2.7839999198913574,2784
840.5128,749.0476,805.4579,849.7802,1758146963.481,1758146963481,2.7839999198913574,2784
714.3956,690.2198,802.6374,750.65936,1758146963.482,1758146963482,2.7850000858306885,2785
749.45056,880.80585,800.6227,749.45056,1758146963.482,1758146963482,2.7850000858306885,2785
880.0,953.3333,804.2491,848.97437,1758146963.482,1758146963482,2.7850000858306885,2785
873.5531,773.6264,803.8461,865.4945,1758146963.483,1758146963483,2.7860000133514404,2786
734.5421,702.3077,798.60803,764.7619,1758146963.483,1758146963483,2.7860000133514404,2786
714.7985,747.4359,798.20514,735.34796,1758146963.483,1758146963483,2.7860000133514404,2786
846.9597,856.2271,804.2491,828.022,1758146963.484,1758146963484,2.7869999408721924,2787
899.7436,887.25275,806.26373,882.4176,1758146963.484,1758146963484,2.7869999408721924,2787
773.22345,720.84247,799.81683,796.1905,1758146963.511,1758146963511,2.813999891281128,2814
691.02563,692.23444,794.9817,723.2601,1758146963.512,1758146963512,2.815000057220459,2815
796.1905,876.77655,797.8022,789.34064,1758146963.512,1758146963512,2.815000057220459,2815
903.7729,898.1319,802.6374,875.9707,1758146963.513,1758146963513,2.815999984741211,2816
812.71063,780.07324,801.8315,825.6044,1758146963.515,1758146963515,2.818000078201294,2818
699.0842,772.01465,800.6227,731.31866,1758146963.516,1758146963516,2.819000005722046,2819
763.5531,799.011,798.60803,760.32965,1758146963.516,1758146963516,2.819000005722046,2819
885.64105,821.1722,799.011,855.42126,1758146963.517,1758146963517,2.819999933242798,2820
844.5421,780.07324,802.23444,844.1392,1758146963.517,1758146963517,2.819999933242798,2820
714.7985,708.3516,802.23444,748.6447,1758146963.518,1758146963518,2.82099986076355,2821
730.5128,799.41394,800.2198,735.7509,1758146963.518,1758146963518,2.82099986076355,2821
864.68866,922.71063,802.23444,830.4396,1758146963.519,1758146963519,2.822000026702881,2822
881.6117,891.28204,805.4579,867.50916,1758146963.556,1758146963556,2.8589999675750732,2859
741.39197,722.0513,798.60803,771.6117,1758146963.557,1758146963557,2.859999895095825,2860
693.44324,686.99634,792.96704,712.381,1758146963.557,1758146963557,2.859999895095825,2860
820.7692,861.4652,799.81683,798.60803,1758146963.558,1758146963558,2.8610000610351562,2861
897.326,929.5604,807.0696,877.98535,1758146963.558,1758146963558,2.8610000610351562,2861
772.4176,816.7399,802.23444,799.011,1758146963.558,1758146963558,2.8610000610351562,2861
669.2674,690.2198,793.7729,706.7399,1758146963.558,1758146963558,2.8610000610351562,2861
768.7912,755.89746,796.5934,765.16486,1758146963.559,1758146963559,2.861999988555908,2862
889.67035,954.5421,801.8315,863.0769,1758146963.559,1758146963559,2.861999988555908,2862
805.4579,745.42126,800.2198,820.3663,1758146963.559,1758146963559,2.861999988555908,2862
679.7436,605.6044,794.9817,718.8278,1758146963.56,1758146963560,2.86299991607666,2863
739.7802,794.9817,793.7729,741.79486,1758146963.56,1758146963560,2.86299991607666,2863
879.59705,949.707,801.8315,851.39197,1758146963.627,1758146963627,2.930000066757202,2930
855.0183,828.022,803.8461,855.0183,1758146963.628,1758146963628,2.930999994277954,2931
719.6337,677.72894,800.2198,755.4945,1758146963.629,1758146963629,2.931999921798706,2932
720.84247,733.3333,800.2198,733.73627,1758146963.629,1758146963629,2.931999921798706,2932
857.8388,963.00366,803.44324,826.8132,1758146963.63,1758146963630,2.933000087738037,2933
892.49084,927.9487,806.26373,875.9707,1758146963.63,1758146963630,2.933000087738037,2933
753.47986,691.8315,799.41394,779.67035,1758146963.632,1758146963632,2.934999942779541,2935
695.4579,654.7619,794.57874,715.2015,1758146963.633,1758146963633,2.935999870300293,2936
816.7399,851.79486,797.8022,800.2198,1758146963.633,1758146963633,2.935999870300293,2936
909.011,929.9634,805.05493,879.19415,1758146963.634,1758146963634,2.937000036239624,2937
798.20514,699.4872,804.65204,802.6374,1758146963.634,1758146963634,2.937000036239624,2937
693.0403,648.315,798.20514,714.3956,1758146963.635,1758146963635,2.937999963760376,2938
783.69965,859.45056,797.3993,767.1795,1758146963.674,1758146963674,2.9769999980926514,2977
901.75824,943.663,803.44324,867.50916,1758146963.675,1758146963675,2.9779999256134033,2978
830.0366,801.02563,805.8608,836.4835,1758146963.675,1758146963675,2.9779999256134033,2978
702.3077,672.49084,801.02563,734.94507,1758146963.676,1758146963676,2.9790000915527344,2979
751.06226,834.4689,797.8022,749.45056,1758146963.676,1758146963676,2.9790000915527344,2979
887.6557,1003.69965,803.44324,854.61536,1758146963.676,1758146963676,2.9790000915527344,2979
873.1502,819.5604,808.2784,867.1062,1758146963.677,1758146963677,2.9800000190734863,2980
735.7509,684.57874,804.2491,763.1502,1758146963.677,1758146963677,2.9800000190734863,2980
721.6484,788.1319,798.20514,728.49817,1758146963.677,1758146963677,2.9800000190734863,2980
846.9597,815.5311,798.60803,815.5311,1758146963.677,1758146963677,2.9800000190734863,2980
894.90845,815.9341,801.8315,872.74725,1758146963.678,1758146963678,2.9809999465942383,2981
770.80585,715.2015,797.8022,788.5348,1758146963.678,1758146963678,2.9809999465942383,2981
697.47253,716.8132,794.17584,716.0073,1758146963.708,1758146963708,3.010999917984009,3011
814.7253,901.75824,796.1905,790.54944,1758146963.709,1758146963709,3.01200008392334,3012
919.0842,952.52747,807.0696,879.19415,1758146963.71,1758146963710,3.013000011444092,3013
813.1135,744.21246,805.4579,817.5458,1758146963.71,1758146963710,3.013000011444092,3013
693.44324,693.44324,799.011,718.8278,1758146963.711,1758146963711,3.0139999389648438,3014
775.2381,898.5348,802.6374,760.7326,1758146963.711,1758146963711,3.0139999389648438,3014
900.14655,946.4835,805.8608,863.8828,1758146963.712,1758146963712,3.0149998664855957,3015
840.9158,729.707,808.68134,840.9158,1758146963.712,1758146963712,3.0149998664855957,3015
713.1868,655.16486,805.4579,738.5714,1758146963.715,1758146963715,3.0179998874664307,3018
747.8388,802.6374,799.011,739.3773,1758146963.715,1758146963715,3.0179998874664307,3018
889.2674,995.64105,805.05493,845.7509,1758146963.716,1758146963716,3.0190000534057617,3019
892.0879,861.8681,816.337,877.5824,1758146963.716,1758146963716,3.0190000534057617,3019
751.06226,646.30035,815.12823,775.2381,1758146963.762,1758146963762,3.065000057220459,3065
717.2161,757.1062,809.0842,726.08057,1758146963.762,1758146963762,3.065000057220459,3065
846.9597,903.36993,809.4872,815.9341,1758146963.762,1758146963762,3.065000057220459,3065
915.8608,908.60803,813.5165,882.8205,1758146963.763,1758146963763,3.065999984741211,3066
788.93774,761.9414,814.3223,803.0403,1758146963.763,1758146963763,3.065999984741211,3066
705.5311,787.326,812.71063,728.49817,1758146963.763,1758146963763,3.065999984741211,3066
807.8755,848.5714,810.696,792.1612,1758146963.764,1758146963764,3.066999912261963,3067
909.41394,865.89746,809.4872,879.59705,1758146963.764,1758146963764,3.066999912261963,3067
819.15753,780.4762,810.293,830.0366,1758146963.764,1758146963764,3.066999912261963,3067
697.8755,635.42126,805.05493,729.304,1758146963.765,1758146963765,3.068000078201294,3068
767.1795,817.5458,803.0403,756.30035,1758146963.765,1758146963765,3.068000078201294,3068
902.96704,938.022,810.696,863.0769,1758146963.765,1758146963765,3.068000078201294,3068
863.47986,800.6227,815.9341,859.85345,1758146963.804,1758146963804,3.1069998741149902,3107
725.6777,701.50183,807.8755,754.68866,1758146963.805,1758146963805,3.1080000400543213,3108
733.73627,844.94507,798.60803,732.1245,1758146963.805,1758146963805,3.1080000400543213,3108
864.2857,901.75824,800.2198,827.2161,1758146963.805,1758146963805,3.1080000400543213,3108
884.43225,840.10986,805.05493,867.50916,1758146963.806,1758146963806,3.1089999675750732,3109
751.4652,786.1172,804.65204,775.2381,1758146963.806,1758146963806,3.1089999675750732,3109
703.5165,732.52747,799.81683,720.0366,1758146963.806,1758146963806,3.1089999675750732,3109
827.619,802.6374,801.8315,802.6374,1758146963.807,1758146963807,3.109999895095825,3110
900.54944,871.9414,805.4579,873.1502,1758146963.807,1758146963807,3.109999895095825,3110
780.4762,768.7912,805.8608,797.3993,1758146963.807,1758146963807,3.109999895095825,3110
684.17584,717.619,802.6374,715.2015,1758146963.809,1758146963809,3.111999988555908,3112
781.685,855.0183,804.65204,774.43225,1758146963.809,1758146963809,3.111999988555908,3112
894.10254,906.1905,810.293,868.315,1758146963.848,1758146963848,3.1510000228881836,3151
810.696,759.5238,810.293,828.4249,1758146963.849,1758146963849,3.1519999504089355,3152
690.2198,692.23444,804.2491,726.4835,1758146963.849,1758146963849,3.1519999504089355,3152
743.00366,774.83514,801.02563,743.00366,1758146963.849,1758146963849,3.1519999504089355,3152
879.19415,967.8388,806.6667,845.34796,1758146963.85,1758146963850,3.1529998779296875,3153
857.8388,890.4762,807.47253,853.00366,1758146963.85,1758146963850,3.1529998779296875,3153
722.0513,699.89014,803.44324,751.4652,1758146963.85,1758146963850,3.1529998779296875,3153
718.8278,771.6117,803.0403,728.0952,1758146963.851,1758146963851,3.1540000438690186,3154
850.989,868.71796,802.23444,827.2161,1758146963.851,1758146963851,3.1540000438690186,3154
889.67035,815.12823,806.6667,876.3736,1758146963.852,1758146963852,3.1549999713897705,3155
756.30035,674.5055,805.4579,784.90845,1758146963.852,1758146963852,3.1549999713897705,3155
695.05493,724.0659,801.4286,726.4835,1758146963.852,1758146963852,3.1549999713897705,3155
820.7692,915.4579,803.8461,813.5165,1758146963.888,1758146963888,3.190999984741211,3191
914.65204,923.1135,809.0842,898.1319,1758146963.889,1758146963889,3.191999912261963,3192
789.34064,695.8608,809.0842,821.978,1758146963.889,1758146963889,3.191999912261963,3192
666.8498,626.9597,800.2198,715.6044,1758146963.89,1758146963890,3.193000078201294,3193
765.16486,877.5824,802.23444,767.98535,1758146963.89,1758146963890,3.193000078201294,3193
900.54944,1022.23444,809.89014,878.3883,1758146963.89,1758146963890,3.193000078201294,3193
826.4103,764.35895,807.47253,840.9158,1758146963.891,1758146963891,3.194000005722046,3194
685.38464,575.78754,800.2198,728.0952,1758146963.891,1758146963891,3.194000005722046,3194
724.4689,772.8205,798.20514,735.7509,1758146963.891,1758146963891,3.194000005722046,3194
876.3736,981.13556,807.8755,852.6007,1758146963.892,1758146963892,3.194999933242798,3195
869.5238,800.6227,811.0989,873.95605,1758146963.892,1758146963892,3.194999933242798,3195
715.2015,608.022,801.02563,757.50916,1758146963.892,1758146963892,3.194999933242798,3195
697.47253,759.5238,795.38464,718.4249,1758146963.955,1758146963955,3.257999897003174,3258
837.6923,923.5165,796.1905,820.3663,1758146963.955,1758146963955,3.257999897003174,3258
893.69965,890.87915,801.02563,883.6264,1758146963.956,1758146963956,3.259000062942505,3259
755.89746,680.9524,799.011,788.93774,1758146963.956,1758146963956,3.259000062942505,3259
677.72894,719.2308,794.9817,711.978,1758146963.956,1758146963956,3.259000062942505,3259
809.0842,979.12085,798.20514,798.20514,1758146963.957,1758146963957,3.259999990463257,3260
907.8022,913.44324,803.44324,887.25275,1758146963.957,1758146963957,3.259999990463257,3260
792.1612,675.31134,801.8315,810.293,1758146963.957,1758146963957,3.259999990463257,3260
684.17584,672.8938,797.3993,712.381,1758146963.958,1758146963958,3.260999917984009,3261
767.98535,817.9487,796.5934,760.32965,1758146963.958,1758146963958,3.260999917984009,3261
904.17584,931.978,801.4286,871.9414,1758146963.958,1758146963958,3.260999917984009,3261
848.1685,742.1978,801.02563,850.18317,1758146963.959,1758146963959,3.26200008392334,3262
706.337,704.3223,795.78754,738.1685,1758146963.979,1758146963979,3.2820000648498535,3282
733.3333,833.663,795.38464,735.7509,1758146963.98,1758146963980,3.2829999923706055,3283
876.3736,911.02563,803.0403,847.3626,1758146963.981,1758146963981,3.2839999198913574,3284
886.4469,842.52747,809.4872,878.3883,1758146963.981,1758146963981,3.2839999198913574,3284
740.18317,687.8022,805.8608,767.1795,1758146963.981,1758146963981,3.2839999198913574,3284
703.91943,814.7253,799.41394,713.9927,1758146963.982,1758146963982,3.2850000858306885,3285
846.1539,926.337,799.81683,811.0989,1758146963.982,1758146963982,3.2850000858306885,3285
919.4872,830.0366,803.44324,885.2381,1758146963.983,1758146963983,3.2860000133514404,3286
788.93774,687.8022,799.011,794.9817,1758146963.983,1758146963983,3.2860000133514404,3286
689.41394,690.2198,790.54944,708.7546,1758146963.984,1758146963984,3.2869999408721924,3287
792.5641,864.2857,796.5934,791.75824,1758146963.984,1758146963984,3.2869999408721924,3287
901.75824,924.3223,806.6667,898.5348,1758146963.984,1758146963984,3.2869999408721924,3287
795.78754,747.4359,803.0403,844.5421,1758146964.063,1758146964063,3.365999937057495,3366
661.2088,664.43225,799.41394,734.94507,1758146964.064,1758146964064,3.366999864578247,3367
739.3773,838.0952,801.02563,768.3883,1758146964.065,1758146964065,3.368000030517578,3368
892.0879,996.8498,807.0696,883.6264,1758146964.065,1758146964065,3.368000030517578,3368
847.3626,859.45056,809.4872,867.9121,1758146964.066,1758146964066,3.36899995803833,3369
699.89014,676.9231,802.23444,749.85345,1758146964.066,1758146964066,3.36899995803833,3369
707.5458,736.55676,796.99634,730.5128,1758146964.067,1758146964067,3.369999885559082,3370
853.8095,863.0769,802.6374,838.0952,1758146964.067,1758146964067,3.369999885559082,3370
889.2674,880.0,810.293,888.0586,1758146964.067,1758146964067,3.369999885559082,3370
741.39197,644.2857,801.8315,782.0879,1758146964.068,1758146964068,3.371000051498413,3371
681.75824,693.0403,792.5641,715.6044,1758146964.068,1758146964068,3.371000051498413,3371
812.71063,895.7143,794.57874,806.26373,1758146964.068,1758146964068,3.371000051498413,3371
906.99634,933.9927,806.26373,892.49084,1758146964.104,1758146964104,3.4070000648498535,3407
788.5348,744.21246,809.89014,811.9048,1758146964.105,1758146964105,3.4079999923706055,3408
676.9231,672.8938,803.0403,714.3956,1758146964.105,1758146964105,3.4079999923706055,3408
778.0586,863.0769,803.44324,778.0586,1758146964.106,1758146964106,3.4089999198913574,3409
904.9817,968.6447,809.0842,885.2381,1758146964.106,1758146964106,3.4089999198913574,3409
823.5897,819.9634,809.0842,841.31866,1758146964.106,1758146964106,3.4089999198913574,3409
689.41394,650.32965,800.6227,730.9158,1758146964.107,1758146964107,3.4100000858306885,3410
749.0476,802.6374,799.41394,752.674,1758146964.107,1758146964107,3.4100000858306885,3410
887.6557,913.0403,806.6667,865.09155,1758146964.107,1758146964107,3.4100000858306885,3410
858.6447,743.8095,807.47253,864.68866,1758146964.108,1758146964108,3.4110000133514404,3411
717.2161,670.07324,803.0403,749.85345,1758146964.108,1758146964108,3.4110000133514404,3411
708.3516,765.9707,799.41394,718.8278,1758146964.108,1758146964108,3.4110000133514404,3411
849.7802,917.0696,801.8315,824.7985,1758146964.149,1758146964149,3.4519999027252197,3452
898.5348,893.2967,807.0696,885.64105,1758146964.15,1758146964150,3.453000068664551,3453
759.5238,692.6374,804.65204,787.326,1758146964.151,1758146964151,3.4539999961853027,3454
682.5641,657.98535,798.20514,712.7839,1758146964.151,1758146964151,3.4539999961853027,3454
805.4579,935.2015,800.6227,801.8315,1758146964.153,1758146964153,3.4560000896453857,3456
909.011,1031.9048,806.6667,894.90845,1758146964.153,1758146964153,3.4560000896453857,3456
787.72894,743.8095,804.65204,819.15753,1758146964.153,1758146964153,3.4560000896453857,3456
666.04395,657.1795,797.3993,719.6337,1758146964.154,1758146964154,3.4570000171661377,3457
761.53845,863.8828,795.38464,770.80585,1758146964.154,1758146964154,3.4570000171661377,3457
895.7143,874.7619,798.20514,877.5824,1758146964.154,1758146964154,3.4570000171661377,3457
830.4396,775.64105,803.8461,850.58606,1758146964.155,1758146964155,3.4579999446868896,3458
692.6374,706.7399,800.6227,737.76556,1758146964.155,1758146964155,3.4579999446868896,3458
728.49817,767.5824,794.57874,735.7509,1758146964.189,1758146964189,3.491999864578247,3492
876.3736,954.5421,801.02563,845.34796,1758146964.19,1758146964190,3.493000030517578,3493
873.5531,863.0769,802.23444,866.30035,1758146964.19,1758146964190,3.493000030517578,3493
724.0659,624.5421,793.7729,755.89746,1758146964.19,1758146964190,3.493000030517578,3493
697.47253,762.74725,791.3553,714.7985,1758146964.191,1758146964191,3.49399995803833,3494
840.10986,999.2674,798.20514,819.9634,1758146964.191,1758146964191,3.49399995803833,3494
900.9524,898.93774,802.6374,883.22345,1758146964.191,1758146964191,3.49399995803833,3494
759.92676,631.39197,796.99634,782.8938,1758146964.192,1758146964192,3.494999885559082,3495
674.90845,658.3883,791.75824,700.696,1758146964.192,1758146964192,3.494999885559082,3495
796.5934,905.78754,797.3993,780.4762,1758146964.192,1758146964192,3.494999885559082,3495
908.60803,901.3553,802.6374,879.59705,1758146964.193,1758146964193,3.496000051498413,3496
801.02563,689.41394,800.2198,813.1135,1758146964.193,1758146964193,3.496000051498413,3496
678.93774,688.60803,796.5934,711.1722,1758146964.234,1758146964234,3.5369999408721924,3537
761.53845,865.4945,796.99634,755.4945,1758146964.234,1758146964234,3.5369999408721924,3537
900.9524,966.2271,800.6227,862.674,1758146964.235,1758146964235,3.5379998683929443,3538
846.9597,722.8571,800.2198,843.3333,1758146964.235,1758146964235,3.5379998683929443,3538
704.3223,608.4249,794.17584,731.7216,1758146964.236,1758146964236,3.5390000343322754,3539
730.10986,857.4359,789.34064,725.6777,1758146964.236,1758146964236,3.5390000343322754,3539
879.59705,992.01465,794.17584,840.5128,1758146964.237,1758146964237,3.5399999618530273,3540
896.9231,859.0476,800.6227,876.3736,1758146964.238,1758146964238,3.5409998893737793,3541
749.85345,673.2967,797.3993,771.6117,1758146964.238,1758146964238,3.5409998893737793,3541
705.9341,669.2674,794.17584,720.0366,1758146964.238,1758146964238,3.5409998893737793,3541
847.3626,912.23444,799.011,816.7399,1758146964.239,1758146964239,3.5420000553131104,3542
923.91943,892.0879,803.0403,894.10254,1758146964.239,1758146964239,3.5420000553131104,3542
784.5055,690.2198,801.02563,799.41394,1758146964.266,1758146964266,3.569000005722046,3569
689.81683,708.7546,797.3993,709.9634,1758146964.266,1758146964266,3.569000005722046,3569
801.4286,882.8205,795.38464,777.6557,1758146964.267,1758146964267,3.569999933242798,3570
919.0842,932.381,802.6374,879.59705,1758146964.268,1758146964268,3.57099986076355,3571
824.3956,772.8205,807.47253,834.0659,1758146964.268,1758146964268,3.57099986076355,3571
692.23444,733.3333,800.6227,724.0659,1758146964.268,1758146964268,3.57099986076355,3571
758.315,872.74725,798.20514,749.85345,1758146964.269,1758146964269,3.572000026702881,3572
901.75824,924.7253,805.4579,866.7033,1758146964.269,1758146964269,3.572000026702881,3572
865.09155,724.0659,810.696,865.09155,1758146964.27,1758146964270,3.572999954223633,3573
718.4249,650.32965,805.05493,749.0476,1758146964.27,1758146964270,3.572999954223633,3573
723.2601,749.85345,799.81683,726.8865,1758146964.271,1758146964271,3.5739998817443848,3574
860.2564,886.4469,802.6374,831.6484,1758146964.271,1758146964271,3.5739998817443848,3574
888.86444,893.69965,808.2784,880.80585,1758146964.336,1758146964336,3.6389999389648438,3639
741.79486,699.4872,804.65204,778.46155,1758146964.337,1758146964337,3.6399998664855957,3640
678.93774,698.2784,801.02563,711.978,1758146964.338,1758146964338,3.6410000324249268,3641
809.4872,871.9414,803.8461,802.6374,1758146964.338,1758146964338,3.6410000324249268,3641
898.93774,942.0513,808.2784,885.64105,1758146964.338,1758146964338,3.6410000324249268,3641
775.2381,788.5348,807.0696,807.0696,1758146964.338,1758146964338,3.6410000324249268,3641
665.64105,642.27106,799.81683,711.1722,1758146964.339,1758146964339,3.6419999599456787,3642
767.1795,799.011,801.8315,772.4176,1758146964.339,1758146964339,3.6419999599456787,3642
898.5348,1002.49084,811.9048,884.43225,1758146964.341,1758146964341,3.6440000534057617,3644
814.7253,764.7619,813.91943,845.7509,1758146964.341,1758146964341,3.6440000534057617,3644
675.7143,565.31134,804.65204,734.5421,1758146964.342,1758146964342,3.6449999809265137,3645
731.31866,774.83514,801.4286,746.2271,1758146964.342,1758146964342,3.6449999809265137,3645
880.80585,983.95605,808.68134,859.0476,1758146964.364,1758146964364,3.6670000553131104,3667
866.7033,836.4835,810.696,873.95605,1758146964.364,1758146964364,3.6670000553131104,3667
717.619,649.92676,803.8461,758.315,1758146964.365,1758146964365,3.6679999828338623,3668
707.9487,767.5824,800.6227,727.28937,1758146964.365,1758146964365,3.6679999828338623,3668
858.6447,948.9011,806.6667,831.2454,1758146964.365,1758146964365,3.6679999828338623,3668
911.4286,953.3333,815.12823,889.2674,1758146964.366,1758146964366,3.6689999103546143,3669
770.40295,703.1135,809.0842,789.34064,1758146964.366,1758146964366,3.6689999103546143,3669
691.4286,628.5714,798.60803,707.9487,1758146964.367,1758146964367,3.6700000762939453,3670
821.1722,872.74725,801.4286,792.96704,1758146964.367,1758146964367,3.6700000762939453,3670
927.1429,942.8571,809.0842,888.46155,1758146964.367,1758146964367,3.6700000762939453,3670
807.0696,747.4359,804.65204,814.7253,1758146964.368,1758146964368,3.6710000038146973,3671
687.8022,647.9121,799.41394,715.6044,1758146964.368,1758146964368,3.6710000038146973,3671
780.87915,882.4176,805.05493,768.7912,1758146964.435,1758146964435,3.73799991607666,3738
912.6374,962.1978,809.0842,874.35895,1758146964.436,1758146964436,3.739000082015991,3739
840.5128,720.84247,807.47253,843.3333,1758146964.436,1758146964436,3.739000082015991,3739
699.89014,642.674,802.6374,732.9304,1758146964.437,1758146964437,3.740000009536743,3740
733.73627,840.5128,799.011,742.1978,1758146964.437,1758146964437,3.740000009536743,3740
881.2088,1017.3993,805.05493,855.82416,1758146964.437,1758146964437,3.740000009536743,3740
881.2088,857.4359,812.71063,882.01465,1758146964.438,1758146964438,3.740999937057495,3741
729.304,626.9597,806.6667,770.80585,1758146964.438,1758146964438,3.740999937057495,3741
701.50183,736.9597,803.0403,722.4542,1758146964.438,1758146964438,3.740999937057495,3741
840.5128,892.8938,809.89014,825.2015,1758146964.439,1758146964439,3.741999864578247,3742
905.78754,847.76556,813.1135,894.90845,1758146964.44,1758146964440,3.743000030517578,3743
774.0293,712.381,806.26373,802.23444,1758146964.441,1758146964441,3.74399995803833,3744
686.5934,715.2015,798.60803,718.8278,1758146964.476,1758146964476,3.7790000438690186,3779
811.50183,871.53845,805.05493,796.99634,1758146964.477,1758146964477,3.7799999713897705,3780
930.7692,928.3516,813.5165,902.1612,1758146964.477,1758146964477,3.7799999713897705,3780
821.1722,704.3223,807.0696,837.6923,1758146964.477,1758146964477,3.7799999713897705,3780
694.2491,707.9487,801.02563,733.3333,1758146964.478,1758146964478,3.7809998989105225,3781
774.43225,894.90845,804.65204,774.83514,1758146964.478,1758146964478,3.7809998989105225,3781
912.23444,932.7839,809.89014,880.80585,1758146964.478,1758146964478,3.7809998989105225,3781
865.09155,731.31866,811.50183,863.8828,1758146964.479,1758146964479,3.7820000648498535,3782
716.8132,609.2308,801.8315,747.03296,1758146964.479,1758146964479,3.7820000648498535,3782
731.31866,784.5055,797.8022,736.1539,1758146964.479,1758146964479,3.7820000648498535,3782
878.7912,948.0952,807.8755,847.3626,1758146964.48,1758146964480,3.7829999923706055,3783
898.1319,865.89746,812.71063,886.04395,1758146964.48,1758146964480,3.7829999923706055,3783
749.45056,705.12823,804.65204,776.04395,1758146964.506,1758146964506,3.809000015258789,3809
696.26373,744.61536,796.99634,713.9927,1758146964.506,1758146964506,3.809000015258789,3809
830.84247,895.31134,800.2198,808.68134,1758146964.507,1758146964507,3.809999942779541,3810
912.6374,875.16486,805.8608,890.07324,1758146964.507,1758146964507,3.809999942779541,3810
782.0879,737.76556,804.2491,805.05493,1758146964.507,1758146964507,3.809999942779541,3810
681.75824,757.9121,799.81683,714.3956,1758146964.508,1758146964508,3.810999870300293,3811
786.1172,868.71796,799.011,779.67035,1758146964.508,1758146964508,3.810999870300293,3811
909.81683,904.57874,804.2491,880.80585,1758146964.508,1758146964508,3.810999870300293,3811
817.5458,727.28937,805.05493,831.2454,1758146964.509,1758146964509,3.812000036239624,3812
677.72894,608.022,798.60803,719.2308,1758146964.509,1758146964509,3.812000036239624,3812
745.82416,793.36993,796.5934,742.6007,1758146964.509,1758146964509,3.812000036239624,3812
891.28204,917.0696,801.8315,858.24176,1758146964.51,1758146964510,3.812999963760376,3813
861.8681,819.15753,807.47253,865.89746,1758146964.54,1758146964540,3.8429999351501465,3843
719.6337,705.5311,801.4286,755.09155,1758146964.541,1758146964541,3.8439998626708984,3844
719.6337,772.01465,796.99634,729.707,1758146964.541,1758146964541,3.8439998626708984,3844
865.89746,906.99634,804.65204,837.6923,1758146964.541,1758146964541,3.8439998626708984,3844
907.8022,891.685,809.4872,886.4469,1758146964.542,1758146964542,3.8450000286102295,3845
762.74725,757.1062,804.65204,779.67035,1758146964.542,1758146964542,3.8450000286102295,3845
695.05493,729.707,796.99634,707.5458,1758146964.543,1758146964543,3.8459999561309814,3846
824.3956,848.5714,799.81683,800.6227,1758146964.543,1758146964543,3.8459999561309814,3846
917.47253,869.12085,804.2491,888.0586,1758146964.543,1758146964543,3.8459999561309814,3846
797.8022,728.0952,804.2491,811.50183,1758146964.544,1758146964544,3.8469998836517334,3847
691.4286,682.1612,801.8315,717.2161,1758146964.544,1758146964544,3.8469998836517334,3847
790.54944,852.6007,803.0403,776.4469,1758146964.544,1758146964544,3.8469998836517334,3847
916.6667,930.7692,809.89014,881.2088,1758146964.608,1758146964608,3.9110000133514404,3911
833.2601,768.3883,808.2784,836.8865,1758146964.609,1758146964609,3.9119999408721924,3912
691.8315,653.95605,802.23444,721.6484,1758146964.609,1758146964609,3.9119999408721924,3912
741.79486,789.7436,803.0403,737.76556,1758146964.609,1758146964609,3.9119999408721924,3912
891.685,957.3626,808.2784,850.989,1758146964.61,1758146964610,3.9129998683929443,3913
882.8205,910.2198,809.89014,865.89746,1758146964.61,1758146964610,3.9129998683929443,3913
736.1539,697.0696,802.23444,759.5238,1758146964.61,1758146964610,3.9129998683929443,3913
711.5751,689.011,791.75824,717.619,1758146964.611,1758146964611,3.9140000343322754,3914
853.8095,919.0842,799.011,821.978,1758146964.611,1758146964611,3.9140000343322754,3914
908.20514,867.9121,807.0696,889.67035,1758146964.611,1758146964611,3.9140000343322754,3914
769.19415,698.2784,801.02563,789.34064,1758146964.612,1758146964612,3.9149999618530273,3915
692.23444,676.52014,794.57874,703.5165,1758146964.612,1758146964612,3.9149999618530273,3915
813.91943,881.6117,799.011,784.10254,1758146964.642,1758146964642,3.944999933242798,3945
922.3077,945.6777,805.8608,883.22345,1758146964.642,1758146964642,3.944999933242798,3945
809.89014,769.19415,803.0403,816.7399,1758146964.644,1758146964644,3.947000026702881,3947
687.3993,694.2491,796.99634,714.7985,1758146964.644,1758146964644,3.947000026702881,3947
770.40295,812.3077,797.3993,759.5238,1758146964.645,1758146964645,3.947999954223633,3948
910.6227,1002.8938,803.44324,876.77655,1758146964.645,1758146964645,3.947999954223633,3948
850.18317,821.978,804.65204,858.24176,1758146964.645,1758146964645,3.947999954223633,3948
697.0696,562.8938,799.41394,735.7509,1758146964.646,1758146964646,3.9489998817443848,3949
726.08057,762.74725,799.011,728.9011,1758146964.646,1758146964646,3.9489998817443848,3949
877.5824,949.707,802.23444,843.73627,1758146964.646,1758146964646,3.9489998817443848,3949
885.64105,855.0183,805.4579,872.3443,1758146964.647,1758146964647,3.950000047683716,3950
739.3773,671.28204,801.4286,761.13556,1758146964.647,1758146964647,3.950000047683716,3950
703.5165,730.10986,796.5934,713.5897,1758146964.707,1758146964707,4.009999990463257,4010
844.5421,904.17584,804.2491,816.337,1758146964.708,1758146964708,4.010999917984009,4011
917.0696,880.80585,811.50183,893.2967,1758146964.708,1758146964708,4.010999917984009,4011
778.46155,722.4542,804.2491,797.8022,1758146964.709,1758146964709,4.01200008392334,4012
685.78754,731.31866,799.81683,707.9487,1758146964.709,1758146964709,4.01200008392334,4012
802.6374,926.337,803.0403,786.1172,1758146964.709,1758146964709,4.01200008392334,4012
917.0696,946.4835,807.0696,888.86444,1758146964.71,1758146964710,4.013000011444092,4013
812.3077,719.2308,805.8608,826.0073,1758146964.71,1758146964710,4.013000011444092,4013
679.7436,649.92676,795.78754,715.6044,1758146964.71,1758146964710,4.013000011444092,4013
750.65936,777.25275,793.36993,748.24176,1758146964.711,1758146964711,4.013999938964844,4014
889.67035,893.2967,800.2198,861.06226,1758146964.711,1758146964711,4.013999938964844,4014
845.34796,786.1172,802.6374,854.21246,1758146964.711,1758146964711,4.013999938964844,4014
700.293,674.10254,798.20514,745.0183,1758146964.744,1758146964744,4.046999931335449,4047
715.6044,783.69965,797.3993,734.5421,1758146964.744,1758146964744,4.046999931335449,4047
866.30035,935.6044,803.44324,845.34796,1758146964.745,1758146964745,4.047999858856201,4048
889.67035,835.2747,806.6667,886.8498,1758146964.745,1758146964745,4.047999858856201,4048
741.79486,708.3516,803.8461,780.07324,1758146964.747,1758146964747,4.049999952316284,4050
691.4286,797.3993,798.60803,722.0513,1758146964.747,1758146964747,4.049999952316284,4050
830.0366,903.36993,801.8315,818.7546,1758146964.747,1758146964747,4.049999952316284,4050
911.02563,831.6484,805.05493,893.2967,1758146964.748,1758146964748,4.050999879837036,4051
778.46155,686.99634,801.02563,800.2198,1758146964.748,1758146964748,4.050999879837036,4051
674.10254,698.2784,794.9817,709.9634,1758146964.748,1758146964748,4.050999879837036,4051
779.2674,830.0366,794.9817,774.43225,1758146964.749,1758146964749,4.052000045776367,4052
911.02563,940.84247,803.0403,877.5824,1758146964.749,1758146964749,4.052000045776367,4052
823.1868,746.63007,803.0403,829.6337,1758146964.786,1758146964786,4.08899998664856,4089
686.1905,649.92676,797.3993,717.2161,1758146964.786,1758146964786,4.08899998664856,4089
751.4652,842.1245,800.2198,737.3626,1758146964.787,1758146964787,4.0899999141693115,4090
897.72894,917.0696,808.68134,850.989,1758146964.787,1758146964787,4.0899999141693115,4090
879.19415,842.9304,812.71063,861.4652,1758146964.787,1758146964787,4.0899999141693115,4090
724.4689,754.68866,805.8608,755.09155,1758146964.788,1758146964788,4.091000080108643,4091
703.91943,738.1685,802.23444,732.52747,1758146964.788,1758146964788,4.091000080108643,4091
840.5128,872.3443,807.8755,840.9158,1758146964.788,1758146964788,4.091000080108643,4091
883.6264,911.4286,813.5165,899.7436,1758146964.789,1758146964789,4.0920000076293945,4092
740.18317,645.89746,810.293,796.99634,1758146964.789,1758146964789,4.0920000076293945,4092
670.87915,641.4652,803.0403,718.022,1758146964.789,1758146964789,4.0920000076293945,4092
811.0989,903.7729,806.26373,803.44324,1758146964.79,1758146964790,4.0929999351501465,4093
921.50183,991.2088,813.91943,896.9231,1758146964.834,1758146964834,4.13700008392334,4137
802.6374,753.47986,806.6667,813.1135,1758146964.835,1758146964835,4.138000011444092,4138
690.2198,660.0,800.6227,713.9927,1758146964.835,1758146964835,4.138000011444092,4138
788.5348,842.9304,804.2491,774.0293,1758146964.835,1758146964835,4.138000011444092,4138
915.05493,973.47986,806.26373,877.5824,1758146964.836,1758146964836,4.138999938964844,4139
838.9011,848.1685,805.8608,842.52747,1758146964.836,1758146964836,4.138999938964844,4139
705.12823,686.1905,801.02563,734.94507,1758146964.838,1758146964838,4.141000032424927,4141
748.24176,757.1062,799.011,742.6007,1758146964.838,1758146964838,4.141000032424927,4141
888.46155,899.7436,802.23444,852.6007,1758146964.838,1758146964838,4.141000032424927,4141
880.0,837.6923,801.4286,870.32965,1758146964.839,1758146964839,4.141999959945679,4142
734.5421,690.6227,795.38464,755.89746,1758146964.839,1758146964839,4.141999959945679,4142
711.1722,742.1978,793.7729,716.0073,1758146964.839,1758146964839,4.141999959945679,4142
850.58606,917.0696,801.8315,822.381,1758146964.876,1758146964876,4.178999900817871,4179
911.4286,904.9817,808.2784,886.8498,1758146964.877,1758146964877,4.180000066757202,4180
774.43225,707.9487,805.4579,786.1172,1758146964.877,1758146964877,4.180000066757202,4180
692.6374,686.5934,804.65204,712.381,1758146964.877,1758146964877,4.180000066757202,4180
813.91943,925.5311,808.2784,801.02563,1758146964.878,1758146964878,4.180999994277954,4181
926.7399,970.65936,812.71063,900.54944,1758146964.878,1758146964878,4.180999994277954,4181
814.7253,693.8461,808.68134,823.1868,1758146964.878,1758146964878,4.180999994277954,4181
681.3553,661.6117,800.6227,713.9927,1758146964.879,1758146964879,4.181999921798706,4182
764.35895,857.03296,802.6374,763.5531,1758146964.879,1758146964879,4.181999921798706,4182
905.38464,897.72894,810.293,871.13556,1758146964.879,1758146964879,4.181999921798706,4182
854.21246,774.83514,813.91943,851.39197,1758146964.88,1758146964880,4.183000087738037,4183
714.7985,626.1539,806.6667,742.6007,1758146964.88,1758146964880,4.183000087738037,4183
741.79486,793.7729,806.26373,737.76556,1758146964.928,1758146964928,4.230999946594238,4231
885.64105,967.4359,814.7253,848.5714,1758146964.928,1758146964928,4.230999946594238,4231
898.1319,886.04395,818.3516,880.40295,1758146964.929,1758146964929,4.23199987411499,4232
761.53845,689.41394,811.9048,778.0586,1758146964.929,1758146964929,4.23199987411499,4232
715.6044,730.5128,805.05493,728.49817,1758146964.929,1758146964929,4.23199987411499,4232
845.7509,968.24176,808.68134,819.9634,1758146964.93,1758146964930,4.233000040054321,4233
924.7253,939.2308,814.7253,892.8938,1758146964.93,1758146964930,4.233000040054321,4233
797.8022,662.8205,813.1135,809.89014,1758146964.93,1758146964930,4.233000040054321,4233
697.0696,608.8278,805.8608,723.2601,1758146964.932,1758146964932,4.234999895095825,4235
799.011,883.22345,804.65204,788.1319,1758146964.932,1758146964932,4.234999895095825,4235
915.4579,963.4066,811.9048,888.0586,1758146964.933,1758146964933,4.236000061035156,4236
825.6044,738.5714,808.2784,837.6923,1758146964.933,1758146964933,4.236000061035156,4236
701.0989,675.31134,800.6227,732.1245,1758146964.964,1758146964964,4.266999959945679,4267
755.89746,821.1722,797.8022,752.674,1758146964.965,1758146964965,4.267999887466431,4268
879.19415,933.1868,801.4286,854.21246,1758146964.965,1758146964965,4.267999887466431,4268
851.79486,828.8278,807.0696,859.85345,1758146964.965,1758146964965,4.267999887466431,4268
720.84247,676.52014,805.8608,758.71796,1758146964.966,1758146964966,4.269000053405762,4269
727.6923,796.5934,802.6374,733.73627,1758146964.966,1758146964966,4.269000053405762,4269
864.2857,943.663,805.05493,831.6484,1758146964.966,1758146964966,4.269000053405762,4269
894.10254,847.76556,807.8755,876.77655,1758146964.967,1758146964967,4.269999980926514,4270
765.56775,723.2601,799.011,783.2967,1758146964.967,1758146964967,4.269999980926514,4270
707.1429,672.0879,793.7729,716.0073,1758146964.968,1758146964968,4.270999908447266,4271
816.7399,882.8205,801.02563,786.9231,1758146964.968,1758146964968,4.270999908447266,4271
900.54944,945.2747,805.4579,867.1062,1758146964.968,1758146964968,4.270999908447266,4271
797.8022,720.0366,804.65204,807.47253,1758146965.034,1758146965034,4.336999893188477,4337
703.1135,739.7802,802.23444,727.28937,1758146965.035,1758146965035,4.338000059127808,4338
783.2967,871.13556,797.8022,771.6117,1758146965.035,1758146965035,4.338000059127808,4338
891.685,888.46155,801.02563,863.47986,1758146965.035,1758146965035,4.338000059127808,4338
828.022,799.81683,802.23444,836.08057,1758146965.036,1758146965036,4.33899998664856,4339
709.5604,780.87915,799.011,743.00366,1758146965.036,1758146965036,4.33899998664856,4339
744.61536,810.293,799.41394,750.65936,1758146965.036,1758146965036,4.33899998664856,4339
861.06226,810.293,799.41394,841.31866,1758146965.037,1758146965037,4.3399999141693115,4340
853.8095,820.7692,802.6374,857.03296,1758146965.037,1758146965037,4.3399999141693115,4340
728.0952,724.87177,803.44324,766.77655,1758146965.037,1758146965037,4.3399999141693115,4340
708.3516,713.9927,800.6227,735.34796,1758146965.039,1758146965039,4.3420000076293945,4342
836.4835,885.2381,804.65204,822.7839,1758146965.04,1758146965040,4.3429999351501465,4343
887.6557,905.38464,808.2784,876.3736,1758146965.077,1758146965077,4.379999876022339,4380
771.6117,734.94507,804.2491,801.02563,1758146965.077,1758146965077,4.379999876022339,4380
706.7399,713.1868,803.8461,736.9597,1758146965.078,1758146965078,4.38100004196167,4381
798.20514,826.0073,803.44324,792.1612,1758146965.078,1758146965078,4.38100004196167,4381
886.4469,915.4579,805.4579,870.7326,1758146965.078,1758146965078,4.38100004196167,4381
805.05493,843.3333,809.0842,823.9927,1758146965.079,1758146965079,4.381999969482422,4382
702.3077,671.28204,803.0403,736.55676,1758146965.079,1758146965079,4.381999969482422,4382
764.35895,728.9011,796.99634,761.53845,1758146965.079,1758146965079,4.381999969482422,4382
879.59705,962.1978,805.4579,853.4066,1758146965.08,1758146965080,4.382999897003174,4383
837.6923,796.5934,809.0842,849.3773,1758146965.08,1758146965080,4.382999897003174,4383
719.6337,680.54944,800.6227,758.71796,1758146965.08,1758146965080,4.382999897003174,4383
737.76556,770.80585,799.011,747.8388,1758146965.081,1758146965081,4.384000062942505,4384
857.8388,893.2967,804.2491,834.0659,1758146965.105,1758146965105,4.4079999923706055,4408
869.5238,849.3773,809.89014,867.9121,1758146965.106,1758146965106,4.408999919891357,4409
749.45056,706.337,808.68134,782.8938,1758146965.106,1758146965106,4.408999919891357,4409
707.1429,712.381,802.23444,734.94507,1758146965.107,1758146965107,4.4100000858306885,4410
811.9048,906.99634,802.6374,809.0842,1758146965.107,1758146965107,4.4100000858306885,4410
884.43225,967.8388,809.0842,875.16486,1758146965.108,1758146965108,4.41100001335144,4411
789.34064,770.80585,809.0842,806.6667,1758146965.108,1758146965108,4.41100001335144,4411
708.7546,636.63007,800.6227,727.28937,1758146965.108,1758146965108,4.41100001335144,4411
795.78754,761.53845,799.81683,777.25275,1758146965.109,1758146965109,4.411999940872192,4412
893.69965,913.44324,805.4579,859.45056,1758146965.109,1758146965109,4.411999940872192,4412
822.7839,805.4579,806.6667,826.4103,1758146965.109,1758146965109,4.411999940872192,4412
720.0366,686.5934,803.0403,744.21246,1758146965.11,1758146965110,4.412999868392944,4413
762.74725,796.5934,801.02563,756.7033,1758146965.17,1758146965170,4.4730000495910645,4473
870.7326,912.6374,803.44324,840.5128,1758146965.171,1758146965171,4.473999977111816,4474
849.7802,837.6923,807.8755,845.34796,1758146965.171,1758146965171,4.473999977111816,4474
733.3333,683.36993,807.8755,759.92676,1758146965.172,1758146965172,4.474999904632568,4475
732.9304,764.35895,804.65204,742.6007,1758146965.172,1758146965172,4.474999904632568,4475
850.58606,942.8571,805.8608,827.2161,1758146965.173,1758146965173,4.476000070571899,4476
873.5531,853.4066,809.0842,861.4652,1758146965.173,1758146965173,4.476000070571899,4476
758.315,712.7839,805.4579,782.8938,1758146965.173,1758146965173,4.476000070571899,4476
714.7985,735.7509,797.8022,732.52747,1758146965.174,1758146965174,4.476999998092651,4477
815.9341,785.31134,797.3993,796.5934,1758146965.174,1758146965174,4.476999998092651,4477
893.2967,842.52747,800.2198,867.50916,1758146965.174,1758146965174,4.476999998092651,4477
811.50183,775.64105,803.44324,816.7399,1758146965.175,1758146965175,4.477999925613403,4478
729.304,709.9634,802.6374,746.2271,1758146965.21,1758146965210,4.513000011444092,4513
798.60803,826.4103,801.8315,785.7143,1758146965.21,1758146965210,4.513000011444092,4513
893.69965,917.47253,805.4579,863.47986,1758146965.211,1758146965211,4.513999938964844,4514
830.84247,770.80585,806.6667,834.0659,1758146965.211,1758146965211,4.513999938964844,4514
718.4249,716.4103,800.2198,746.63007,1758146965.211,1758146965211,4.513999938964844,4514
755.4945,875.56775,799.41394,758.71796,1758146965.212,1758146965212,4.514999866485596,4515
869.5238,908.20514,801.8315,845.7509,1758146965.212,1758146965212,4.514999866485596,4515
855.42126,796.99634,804.2491,855.0183,1758146965.212,1758146965212,4.514999866485596,4515
738.5714,695.4579,802.23444,766.3736,1758146965.213,1758146965213,4.516000032424927,4516
724.87177,718.022,795.38464,734.1392,1758146965.213,1758146965213,4.516000032424927,4516
836.8865,872.74725,796.5934,815.12823,1758146965.213,1758146965213,4.516000032424927,4516
880.40295,884.43225,803.0403,864.68866,1758146965.214,1758146965214,4.516999959945679,4517
772.4176,785.31134,802.6374,789.7436,1758146965.251,1758146965251,4.553999900817871,4554
707.9487,739.3773,799.81683,727.28937,1758146965.252,1758146965252,4.555000066757202,4555
801.4286,828.4249,803.8461,786.52014,1758146965.253,1758146965253,4.555999994277954,4556
884.43225,924.7253,807.0696,864.68866,1758146965.254,1758146965254,4.556999921798706,4557
798.60803,792.96704,807.47253,815.9341,1758146965.254,1758146965254,4.556999921798706,4557
705.12823,755.89746,804.65204,736.1539,1758146965.254,1758146965254,4.556999921798706,4557
775.64105,824.3956,801.8315,771.6117,1758146965.255,1758146965255,4.558000087738037,4558
887.6557,886.04395,806.26373,855.42126,1758146965.255,1758146965255,4.558000087738037,4558
832.8571,803.8461,804.2491,830.4396,1758146965.255,1758146965255,4.558000087738037,4558
715.6044,649.5238,800.6227,742.6007,1758146965.256,1758146965256,4.559000015258789,4559
747.03296,755.89746,800.2198,745.0183,1758146965.256,1758146965256,4.559000015258789,4559
869.92676,888.0586,804.65204,836.08057,1758146965.256,1758146965256,4.559000015258789,4559
869.12085,857.4359,809.89014,859.45056,1758146965.324,1758146965324,4.626999855041504,4627
745.82416,726.8865,805.05493,767.98535,1758146965.325,1758146965325,4.628000020980835,4628
722.0513,704.3223,798.60803,729.707,1758146965.325,1758146965325,4.628000020980835,4628
842.9304,911.02563,803.0403,815.12823,1758146965.326,1758146965326,4.628999948501587,4629
896.52014,967.4359,813.5165,876.3736,1758146965.326,1758146965326,4.628999948501587,4629
778.86444,745.82416,808.2784,797.8022,1758146965.327,1758146965327,4.629999876022339,4630
703.1135,693.44324,801.8315,726.4835,1758146965.327,1758146965327,4.629999876022339,4630
802.23444,798.20514,801.8315,790.54944,1758146965.327,1758146965327,4.629999876022339,4630
895.31134,885.64105,807.8755,875.16486,1758146965.328,1758146965328,4.63100004196167,4631
803.0403,786.9231,809.4872,821.978,1758146965.328,1758146965328,4.63100004196167,4631
699.89014,694.2491,804.2491,732.1245,1758146965.328,1758146965328,4.63100004196167,4631
770.40295,803.44324,801.4286,766.77655,1758146965.329,1758146965329,4.631999969482422,4632
892.49084,923.91943,803.8461,859.0476,1758146965.368,1758146965368,4.671000003814697,4671
843.73627,820.7692,804.2491,844.94507,1758146965.368,1758146965368,4.671000003814697,4671
709.15753,680.14655,794.9817,740.989,1758146965.369,1758146965369,4.671999931335449,4672
728.0952,759.5238,793.7729,734.1392,1758146965.369,1758146965369,4.671999931335449,4672
861.4652,961.39197,805.4579,838.0952,1758146965.371,1758146965371,4.674000024795532,4674
868.71796,940.0366,809.0842,865.4945,1758146965.371,1758146965371,4.674000024795532,4674
730.10986,675.7143,801.4286,765.56775,1758146965.371,1758146965371,4.674000024795532,4674
695.05493,689.41394,796.99634,718.022,1758146965.372,1758146965372,4.674999952316284,4675
823.5897,907.8022,801.02563,806.6667,1758146965.372,1758146965372,4.674999952316284,4675
891.28204,840.10986,803.0403,875.9707,1758146965.372,1758146965372,4.674999952316284,4675
769.59705,691.4286,798.60803,797.8022,1758146965.373,1758146965373,4.675999879837036,4676
684.57874,702.71063,795.38464,720.0366,1758146965.373,1758146965373,4.675999879837036,4676
790.14655,843.73627,799.41394,783.69965,1758146965.407,1758146965407,4.710000038146973,4710
900.9524,940.4396,806.6667,875.9707,1758146965.408,1758146965408,4.710999965667725,4711
812.3077,755.09155,807.47253,825.2015,1758146965.408,1758146965408,4.710999965667725,4711
691.02563,630.58606,801.8315,725.6777,1758146965.408,1758146965408,4.710999965667725,4711
762.3443,857.03296,802.6374,758.71796,1758146965.409,1758146965409,4.711999893188477,4712
900.9524,1034.7252,809.89014,867.1062,1758146965.409,1758146965409,4.711999893188477,4712
859.85345,815.9341,812.3077,856.2271,1758146965.409,1758146965409,4.711999893188477,4712
715.2015,568.1319,802.23444,740.58606,1758146965.41,1758146965410,4.713000059127808,4713
723.2601,749.45056,795.38464,726.08057,1758146965.41,1758146965410,4.713000059127808,4713
867.1062,944.87177,801.02563,832.0513,1758146965.41,1758146965410,4.713000059127808,4713
889.67035,893.69965,805.4579,870.32965,1758146965.41,1758146965410,4.713000059127808,4713
745.0183,716.4103,802.23444,768.7912,1758146965.411,1758146965411,4.71399998664856,4714
691.8315,672.0879,796.1905,708.7546,1758146965.439,1758146965439,4.741999864578247,4742
820.3663,902.5641,798.60803,799.011,1758146965.439,1758146965439,4.741999864578247,4742
906.99634,947.28937,807.47253,884.43225,1758146965.44,1758146965440,4.743000030517578,4743
789.34064,697.0696,804.65204,805.4579,1758146965.44,1758146965440,4.743000030517578,4743
687.3993,695.4579,793.36993,705.9341,1758146965.44,1758146965440,4.743000030517578,4743
794.57874,968.24176,797.3993,774.0293,1758146965.441,1758146965441,4.74399995803833,4744
915.05493,934.3956,805.05493,879.19415,1758146965.442,1758146965442,4.744999885559082,4745
820.3663,707.1429,800.6227,827.619,1758146965.442,1758146965442,4.744999885559082,4745
691.4286,679.7436,796.5934,724.4689,1758146965.443,1758146965443,4.746000051498413,4746
755.89746,809.89014,795.38464,750.2564,1758146965.443,1758146965443,4.746000051498413,4746
900.54944,921.0989,801.02563,857.03296,1758146965.443,1758146965443,4.746000051498413,4746
869.92676,785.31134,803.44324,857.03296,1758146965.444,1758146965444,4.746999979019165,4747
718.022,652.74725,796.5934,747.8388,1758146965.493,1758146965493,4.796000003814697,4796
718.022,795.38464,794.9817,724.4689,1758146965.494,1758146965494,4.796999931335449,4797
863.0769,1000.07324,801.02563,832.0513,1758146965.494,1758146965494,4.796999931335449,4797
894.10254,833.663,807.8755,884.83514,1758146965.495,1758146965495,4.797999858856201,4798
758.315,666.04395,810.293,789.7436,1758146965.495,1758146965495,4.797999858856201,4798
701.50183,799.011,803.44324,724.87177,1758146965.495,1758146965495,4.797999858856201,4798
823.1868,873.1502,801.4286,809.4872,1758146965.496,1758146965496,4.799000024795532,4799
912.6374,857.03296,809.89014,896.52014,1758146965.496,1758146965496,4.799000024795532,4799
791.75824,725.2747,807.0696,817.5458,1758146965.496,1758146965496,4.799000024795532,4799
679.34064,659.59705,803.44324,719.2308,1758146965.497,1758146965497,4.799999952316284,4800
778.46155,878.3883,806.26373,779.2674,1758146965.497,1758146965497,4.799999952316284,4800
910.2198,930.7692,809.4872,884.83514,1758146965.497,1758146965497,4.799999952316284,4800
828.8278,747.4359,808.2784,843.3333,1758146965.532,1758146965532,4.835000038146973,4835
689.41394,655.16486,801.02563,730.5128,1758146965.532,1758146965532,4.835000038146973,4835
739.7802,830.84247,797.8022,747.4359,1758146965.533,1758146965533,4.835999965667725,4836
885.64105,936.0073,803.8461,860.2564,1758146965.533,1758146965533,4.835999965667725,4836
877.5824,845.34796,811.0989,876.77655,1758146965.533,1758146965533,4.835999965667725,4836
735.7509,737.3626,809.89014,768.3883,1758146965.534,1758146965534,4.836999893188477,4837
710.7692,734.94507,800.6227,724.87177,1758146965.534,1758146965534,4.836999893188477,4837
846.1539,853.8095,803.44324,822.7839,1758146965.534,1758146965534,4.836999893188477,4837
907.3993,882.8205,809.89014,887.25275,1758146965.536,1758146965536,4.83899998664856,4839
770.80585,676.52014,801.4286,787.72894,1758146965.536,1758146965536,4.83899998664856,4839
685.78754,651.53845,793.7729,702.71063,1758146965.537,1758146965537,4.8399999141693115,4840
811.9048,881.6117,799.81683,784.5055,1758146965.537,1758146965537,4.8399999141693115,4840
931.1722,956.9597,812.71063,889.2674,1758146965.587,1758146965587,4.889999866485596,4890
827.619,754.68866,809.89014,819.5604,1758146965.589,1758146965589,4.891999959945679,4892
700.293,671.685,798.60803,713.1868,1758146965.589,1758146965589,4.891999959945679,4892
776.8498,859.45056,803.0403,772.8205,1758146965.59,1758146965590,4.892999887466431,4893
904.57874,977.50916,811.0989,891.685,1758146965.59,1758146965590,4.892999887466431,4893
836.4835,821.1722,813.1135,867.1062,1758146965.59,1758146965590,4.892999887466431,4893
687.8022,642.27106,807.47253,748.6447,1758146965.591,1758146965591,4.894000053405762,4894
714.7985,707.1429,800.2198,743.00366,1758146965.591,1758146965591,4.894000053405762,4894
865.89746,950.9158,803.0403,853.00366,1758146965.592,1758146965592,4.894999980926514,4895
879.59705,871.9414,806.26373,883.6264,1758146965.592,1758146965592,4.894999980926514,4895
731.31866,623.73627,800.6227,770.0,1758146965.592,1758146965592,4.894999980926514,4895
693.8461,713.5897,801.4286,717.2161,1758146965.593,1758146965593,4.895999908447266,4896
833.2601,913.0403,804.65204,816.337,1758146965.625,1758146965625,4.927999973297119,4928
907.3993,920.293,808.2784,895.31134,1758146965.625,1758146965625,4.927999973297119,4928
771.2088,690.2198,807.8755,801.02563,1758146965.626,1758146965626,4.928999900817871,4929
678.93774,672.0879,804.65204,708.3516,1758146965.626,1758146965626,4.928999900817871,4929
791.75824,915.4579,805.4579,782.49084,1758146965.626,1758146965626,4.928999900817871,4929
905.78754,1014.17584,810.696,881.2088,1758146965.626,1758146965626,4.928999900817871,4929
806.26373,724.4689,811.9048,819.5604,1758146965.627,1758146965627,4.930000066757202,4930
677.326,603.1868,803.44324,711.5751,1758146965.627,1758146965627,4.930000066757202,4930
752.27106,866.30035,800.6227,751.4652,1758146965.627,1758146965627,4.930000066757202,4930
890.87915,928.3516,803.0403,863.8828,1758146965.628,1758146965628,4.930999994277954,4931
849.3773,753.0769,805.05493,850.989,1758146965.629,1758146965629,4.931999921798706,4932
710.3663,629.7802,799.81683,742.1978,1758146965.63,1758146965630,4.933000087738037,4933
729.707,826.4103,799.011,733.73627,1758146965.681,1758146965681,4.983999967575073,4984
875.9707,963.00366,809.4872,842.52747,1758146965.682,1758146965682,4.984999895095825,4985
897.72894,836.8865,815.12823,886.04395,1758146965.682,1758146965682,4.984999895095825,4985
748.24176,649.12085,809.89014,779.2674,1758146965.683,1758146965683,4.986000061035156,4986
694.65204,746.2271,803.8461,715.6044,1758146965.683,1758146965683,4.986000061035156,4986
833.663,1006.52014,808.68134,815.12823,1758146965.684,1758146965684,4.986999988555908,4987
918.68134,943.2601,815.12823,898.1319,1758146965.685,1758146965685,4.98799991607666,4988
790.9524,647.9121,811.9048,811.50183,1758146965.685,1758146965685,4.98799991607666,4988
686.1905,613.2601,799.011,714.3956,1758146965.686,1758146965686,4.989000082015991,4989
792.5641,892.8938,800.6227,779.67035,1758146965.686,1758146965686,4.989000082015991,4989
921.0989,967.8388,807.0696,885.2381,1758146965.687,1758146965687,4.990000009536743,4990
832.8571,755.09155,805.4579,840.10986,1758146965.687,1758146965687,4.990000009536743,4990
699.0842,657.1795,800.2198,726.08057,1758146965.729,1758146965729,5.0320000648498535,5032
755.09155,821.978,800.2198,742.1978,1758146965.729,1758146965729,5.0320000648498535,5032
898.1319,983.95605,809.89014,860.65936,1758146965.73,1758146965730,5.0329999923706055,5033
869.12085,796.1905,813.5165,864.68866,1758146965.73,1758146965730,5.0329999923706055,5033
715.6044,687.8022,806.6667,751.06226,1758146965.73,1758146965730,5.0329999923706055,5033
710.7692,808.68134,803.44324,727.6923,1758146965.731,1758146965731,5.033999919891357,5034
853.00366,923.1135,806.26373,832.8571,1758146965.731,1758146965731,5.033999919891357,5034
896.52014,842.52747,811.0989,886.8498,1758146965.731,1758146965731,5.033999919891357,5034
753.0769,667.6557,808.2784,782.8938,1758146965.732,1758146965732,5.0350000858306885,5035
680.9524,696.26373,798.60803,707.9487,1758146965.732,1758146965732,5.0350000858306885,5035
809.4872,884.0293,799.81683,796.1905,1758146965.732,1758146965732,5.0350000858306885,5035
908.60803,912.23444,806.6667,889.2674,1758146965.733,1758146965733,5.03600001335144,5036
792.1612,750.2564,801.8315,811.0989,1758146965.767,1758146965767,5.069999933242798,5070
678.1319,703.91943,796.5934,712.7839,1758146965.768,1758146965768,5.07099986076355,5071
772.01465,829.6337,802.23444,772.01465,1758146965.768,1758146965768,5.07099986076355,5071
904.17584,902.96704,806.6667,880.0,1758146965.768,1758146965768,5.07099986076355,5071
831.6484,778.46155,803.0403,848.5714,1758146965.769,1758146965769,5.072000026702881,5072
697.47253,732.1245,799.41394,743.00366,1758146965.769,1758146965769,5.072000026702881,5072
738.5714,813.91943,799.81683,744.21246,1758146965.769,1758146965769,5.072000026702881,5072
877.5824,845.7509,804.2491,847.76556,1758146965.769,1758146965769,5.072000026702881,5072
880.40295,795.38464,803.8461,869.92676,1758146965.77,1758146965770,5.072999954223633,5073
734.1392,672.0879,799.81683,755.89746,1758146965.77,1758146965770,5.072999954223633,5073
703.5165,722.8571,794.17584,709.9634,1758146965.77,1758146965770,5.072999954223633,5073
850.18317,890.87915,798.20514,818.3516,1758146965.771,1758146965771,5.073999881744385,5074
916.26373,919.4872,805.8608,891.685,1758146965.816,1758146965816,5.11899995803833,5119
776.8498,722.0513,798.20514,789.7436,1758146965.817,1758146965817,5.119999885559082,5120
686.5934,689.41394,790.14655,705.5311,1758146965.817,1758146965817,5.119999885559082,5120
809.0842,902.5641,789.7436,784.90845,1758146965.817,1758146965817,5.119999885559082,5120
925.9341,970.2564,796.5934,886.8498,1758146965.818,1758146965818,5.121000051498413,5121
817.1429,786.9231,798.60803,828.022,1758146965.818,1758146965818,5.121000051498413,5121
692.6374,686.1905,795.38464,725.2747,1758146965.818,1758146965818,5.121000051498413,5121
772.4176,829.6337,797.3993,764.7619,1758146965.819,1758146965819,5.121999979019165,5122
908.60803,961.79486,803.8461,875.16486,1758146965.819,1758146965819,5.121999979019165,5122
848.5714,716.4103,804.65204,858.6447,1758146965.819,1758146965819,5.121999979019165,5122
695.4579,641.06226,800.2198,744.61536,1758146965.82,1758146965820,5.122999906539917,5123
720.0366,786.9231,797.3993,736.55676,1758146965.82,1758146965820,5.122999906539917,5123
871.53845,896.52014,805.4579,852.6007,1758146965.88,1758146965880,5.183000087738037,5183
886.8498,879.59705,811.9048,890.07324,1758146965.88,1758146965880,5.183000087738037,5183
739.3773,682.96704,806.6667,772.01465,1758146965.882,1758146965882,5.184999942779541,5185
698.68134,709.15753,800.6227,712.381,1758146965.882,1758146965882,5.184999942779541,5185
834.0659,913.8461,800.6227,812.71063,1758146965.882,1758146965882,5.184999942779541,5185
910.6227,978.71796,803.8461,893.69965,1758146965.883,1758146965883,5.185999870300293,5186
776.4469,729.707,801.8315,806.26373,1758146965.883,1758146965883,5.185999870300293,5186
671.685,595.12823,796.99634,710.7692,1758146965.883,1758146965883,5.185999870300293,5186
