unix_sec,unix_ms,rel_sec,rel_ms,TP9,TP10,AF7,AF8
1758146960.702,1758146960702,0.004999876022338867,5,810.696,792.1612,892.0879,800.6227
1758146960.702,1758146960702,0.004999876022338867,5,913.8461,884.43225,959.3773,806.6667
1758146960.703,1758146960703,0.006000041961669922,6,813.91943,827.619,759.92676,805.4579
1758146960.704,1758146960704,0.006999969482421875,7,705.5311,732.52747,737.3626,801.8315
1758146960.704,1758146960704,0.006999969482421875,7,785.7143,774.0293,926.337,801.8315
1758146960.704,1758146960704,0.006999969482421875,7,908.60803,871.53845,965.42126,806.26373
1758146960.705,1758146960705,0.007999897003173828,8,847.3626,856.2271,762.74725,809.4872
1758146960.705,1758146960705,0.007999897003173828,8,710.3663,754.2857,599.15753,802.23444
1758146960.706,1758146960706,0.009000062942504883,9,739.3773,746.2271,813.1135,796.1905
1758146960.707,1758146960707,0.009999990463256836,10,879.59705,845.7509,883.6264,801.4286
1758146960.707,1758146960707,0.009999990463256836,10,881.2088,876.3736,801.8315,807.47253
1758146960.707,1758146960707,0.009999990463256836,10,743.4066,777.6557,701.9048,804.65204
1758146960.739,1758146960739,0.04200005531311035,42,711.1722,730.9158,744.61536,799.011
1758146960.739,1758146960739,0.04200005531311035,42,836.8865,825.2015,911.4286,804.2491
1758146960.74,1758146960740,0.042999982833862305,43,896.1172,888.0586,892.8938,811.0989
1758146960.74,1758146960740,0.042999982833862305,43,774.83514,803.44324,674.90845,808.68134
1758146960.74,1758146960740,0.042999982833862305,43,691.4286,722.4542,724.4689,803.0403
1758146960.741,1758146960741,0.04399991035461426,44,794.17584,786.9231,958.97437,802.23444
1758146960.741,1758146960741,0.04399991035461426,44,899.34064,877.98535,902.5641,808.2784
1758146960.741,1758146960741,0.04399991035461426,44,802.23444,825.6044,737.76556,804.65204
1758146960.741,1758146960741,0.04399991035461426,44,680.54944,734.1392,672.0879,793.7729
1758146960.742,1758146960742,0.04500007629394531,45,747.8388,760.7326,774.83514,792.96704
1758146960.742,1758146960742,0.04500007629394531,45,886.04395,857.03296,915.4579,799.011
1758146960.742,1758146960742,0.04500007629394531,45,851.39197,853.00366,813.5165,803.0403
1758146960.766,1758146960766,0.0690000057220459,69,712.381,750.65936,690.6227,801.4286
1758146960.767,1758146960767,0.06999993324279785,70,725.6777,736.55676,757.1062,798.20514
1758146960.767,1758146960767,0.06999993324279785,70,869.12085,837.6923,911.4286,803.44324
1758146960.767,1758146960767,0.06999993324279785,70,885.64105,879.19415,830.84247,809.4872
1758146960.768,1758146960768,0.0709998607635498,71,753.47986,786.1172,726.08057,806.26373
1758146960.768,1758146960768,0.0709998607635498,71,709.5604,728.0952,829.2308,799.011
1758146960.768,1758146960768,0.0709998607635498,71,827.619,805.8608,883.22345,796.5934
1758146960.769,1758146960769,0.07200002670288086,72,904.17584,881.6117,878.7912,801.8315
1758146960.769,1758146960769,0.07200002670288086,72,787.326,806.6667,771.6117,802.23444
1758146960.769,1758146960769,0.07200002670288086,72,687.3993,717.619,643.47986,793.7729
1758146960.771,1758146960771,0.07399988174438477,74,784.90845,781.28204,875.56775,798.20514
1758146960.771,1758146960771,0.07399988174438477,74,900.14655,874.7619,956.9597,804.2491
1758146960.792,1758146960792,0.09500002861022949,95,816.337,831.6484,724.4689,802.6374
1758146960.793,1758146960793,0.09599995613098145,96,694.2491,738.97437,687.8022,799.41394
1758146960.793,1758146960793,0.09599995613098145,96,751.06226,755.89746,827.619,799.81683
1758146960.794,1758146960794,0.0969998836517334,97,887.6557,853.8095,887.25275,808.2784
1758146960.794,1758146960794,0.0969998836517334,97,859.45056,862.674,805.8608,813.1135
1758146960.794,1758146960794,0.0969998836517334,97,721.6484,766.77655,759.12085,808.2784
1758146960.795,1758146960795,0.09800004959106445,98,718.8278,737.76556,780.07324,804.2491
1758146960.795,1758146960795,0.09800004959106445,98,850.18317,827.619,862.674,808.2784
1758146960.795,1758146960795,0.09800004959106445,98,884.0293,878.7912,850.58606,811.50183
1758146960.796,1758146960796,0.0989999771118164,99,750.2564,790.9524,725.6777,805.4579
1758146960.796,1758146960796,0.0989999771118164,99,695.4579,726.4835,708.7546,799.41394
1758146960.796,1758146960796,0.0989999771118164,99,821.1722,799.011,849.3773,802.23444
1758146960.862,1758146960862,0.16499996185302734,165,913.8461,884.43225,926.7399,809.4872
1758146960.863,1758146960863,0.1659998893737793,166,805.05493,822.381,745.42126,809.89014
1758146960.863,1758146960863,0.1659998893737793,166,706.7399,732.1245,712.381,806.26373
1758146960.863,1758146960863,0.1659998893737793,166,790.9524,774.83514,823.1868,801.8315
1758146960.864,1758146960864,0.16700005531311035,167,906.5934,866.7033,919.0842,804.2491
1758146960.864,1758146960864,0.16700005531311035,167,840.5128,838.0952,864.68866,805.8608
1758146960.864,1758146960864,0.16700005531311035,167,712.7839,739.3773,693.44324,800.6227
1758146960.865,1758146960865,0.1679999828338623,168,753.0769,740.58606,789.34064,795.78754
1758146960.865,1758146960865,0.1679999828338623,168,884.0293,839.707,934.7985,797.3993
1758146960.865,1758146960865,0.1679999828338623,168,873.1502,863.8828,779.67035,802.23444
1758146960.866,1758146960866,0.16899991035461426,169,736.55676,762.3443,653.95605,799.41394
1758146960.866,1758146960866,0.16899991035461426,169,722.0513,722.0513,724.87177,795.38464
1758146960.89,1758146960890,0.19300007820129395,193,852.1978,810.696,911.4286,797.8022
1758146960.89,1758146960890,0.19300007820129395,193,896.1172,873.5531,920.696,805.05493
1758146960.891,1758146960891,0.1940000057220459,194,766.3736,795.78754,729.304,807.0696
1758146960.891,1758146960891,0.1940000057220459,194,692.6374,727.28937,688.60803,804.65204
1758146960.891,1758146960891,0.1940000057220459,194,803.44324,794.57874,891.28204,804.2491
1758146960.892,1758146960892,0.19499993324279785,195,904.17584,877.98535,1003.2967,805.05493
1758146960.892,1758146960892,0.19499993324279785,195,805.05493,823.1868,790.9524,806.6667
1758146960.892,1758146960892,0.19499993324279785,195,688.20514,728.0952,591.50183,802.6374
1758146960.893,1758146960893,0.1959998607635498,196,765.56775,762.3443,771.2088,799.81683
1758146960.893,1758146960893,0.1959998607635498,196,892.8938,863.8828,937.619,808.68134
1758146960.893,1758146960893,0.1959998607635498,196,836.4835,845.34796,766.77655,811.0989
1758146960.894,1758146960894,0.19700002670288086,197,703.91943,743.00366,653.1502,803.0403
1758146960.949,1758146960949,0.2519998550415039,252,732.1245,742.1978,799.011,799.011
1758146960.95,1758146960950,0.25300002098083496,253,868.71796,840.10986,920.696,803.0403
1758146960.95,1758146960950,0.25300002098083496,253,880.0,868.71796,867.50916,804.65204
1758146960.951,1758146960951,0.2539999485015869,254,742.6007,770.80585,710.3663,797.8022
1758146960.951,1758146960951,0.2539999485015869,254,705.9341,720.4396,738.5714,793.36993
1758146960.951,1758146960951,0.2539999485015869,254,842.1245,809.0842,999.2674,799.81683
1758146960.952,1758146960952,0.25499987602233887,255,909.81683,876.77655,947.6923,803.8461
1758146960.952,1758146960952,0.25499987602233887,255,776.4469,791.3553,623.73627,795.38464
1758146960.952,1758146960952,0.25499987602233887,255,693.8461,716.4103,732.1245,793.7729
1758146960.953,1758146960953,0.2560000419616699,256,799.011,785.31134,861.8681,798.60803
1758146960.953,1758146960953,0.2560000419616699,256,904.17584,875.16486,862.27106,800.6227
1758146960.953,1758146960953,0.2560000419616699,256,813.91943,820.3663,742.6007,799.81683
1758146961.018,1758146961018,0.3209998607635498,321,695.8608,724.0659,695.05493,794.9817
1758146961.018,1758146961018,0.3209998607635498,321,768.7912,757.9121,849.7802,794.57874
1758146961.02,1758146961020,0.3229999542236328,323,900.9524,855.42126,944.87177,799.41394
1758146961.02,1758146961020,0.3229999542236328,323,860.65936,852.6007,813.1135,802.23444
1758146961.021,1758146961021,0.32399988174438477,324,726.4835,748.24176,676.1172,799.011
1758146961.021,1758146961021,0.32399988174438477,324,736.9597,729.707,832.8571,794.9817
1758146961.021,1758146961021,0.32399988174438477,324,872.3443,829.6337,931.1722,799.41394
1758146961.022,1758146961022,0.3250000476837158,325,893.69965,871.53845,775.2381,805.05493
1758146961.022,1758146961022,0.3250000476837158,325,752.674,775.64105,671.685,797.8022
1758146961.022,1758146961022,0.3250000476837158,325,695.05493,718.8278,724.87177,794.57874
1758146961.022,1758146961022,0.3250000476837158,325,815.9341,801.4286,870.7326,802.6374
1758146961.023,1758146961023,0.3259999752044678,326,897.72894,876.3736,896.1172,809.89014
1758146961.025,1758146961025,0.3280000686645508,328,782.8938,803.0403,786.9231,808.68134
1758146961.025,1758146961025,0.3280000686645508,328,684.17584,714.7985,733.3333,803.0403
1758146961.026,1758146961026,0.32899999618530273,329,777.6557,769.19415,814.3223,803.8461
1758146961.026,1758146961026,0.32899999618530273,329,894.10254,863.0769,880.40295,809.89014
1758146961.026,1758146961026,0.32899999618530273,329,811.50183,818.7546,796.5934,805.8608
1758146961.027,1758146961027,0.3299999237060547,330,685.78754,724.4689,756.7033,801.4286
1758146961.027,1758146961027,0.3299999237060547,330,739.7802,748.6447,844.1392,803.0403
1758146961.027,1758146961027,0.3299999237060547,330,870.7326,848.97437,931.978,809.0842
1758146961.028,1758146961028,0.33100008964538574,331,850.18317,855.82416,812.3077,811.0989
1758146961.028,1758146961028,0.33100008964538574,331,714.7985,754.68866,607.619,803.0403
1758146961.028,1758146961028,0.33100008964538574,331,707.5458,722.4542,715.2015,797.3993
1758146961.029,1758146961029,0.3320000171661377,332,843.73627,818.7546,911.4286,798.20514
1758146961.082,1758146961082,0.38499999046325684,385,889.67035,873.1502,863.8828,805.8608
1758146961.083,1758146961083,0.3859999179840088,386,766.3736,788.5348,717.619,805.8608
1758146961.083,1758146961083,0.3859999179840088,386,703.1135,730.5128,715.2015,796.99634
1758146961.084,1758146961084,0.38700008392333984,387,817.5458,804.65204,840.9158,800.2198
1758146961.085,1758146961085,0.3880000114440918,388,917.0696,883.6264,974.2857,809.89014
1758146961.085,1758146961085,0.3880000114440918,388,807.8755,816.7399,779.67035,804.65204
1758146961.086,1758146961086,0.38899993896484375,389,695.05493,724.4689,645.09155,799.011
1758146961.086,1758146961086,0.38899993896484375,389,782.49084,770.0,772.01465,801.4286
1758146961.086,1758146961086,0.38899993896484375,389,905.78754,865.4945,884.0293,805.8608
1758146961.087,1758146961087,0.3899998664855957,390,844.1392,835.6777,775.2381,804.2491
1758146961.087,1758146961087,0.3899998664855957,390,715.6044,732.9304,657.98535,797.8022
1758146961.087,1758146961087,0.3899998664855957,390,762.3443,746.2271,803.8461,801.8315
1758146961.116,1758146961116,0.41899991035461426,419,911.02563,857.03296,961.79486,807.8755
1758146961.116,1758146961116,0.41899991035461426,419,898.5348,878.3883,861.06226,808.68134
1758146961.117,1758146961117,0.4200000762939453,420,743.8095,780.87915,690.2198,802.6374
1758146961.117,1758146961117,0.4200000762939453,420,703.5165,739.3773,696.26373,799.41394
1758146961.117,1758146961117,0.4200000762939453,420,829.6337,833.2601,932.381,807.0696
1758146961.118,1758146961118,0.42100000381469727,421,891.28204,903.36993,992.4176,816.7399
1758146961.118,1758146961118,0.42100000381469727,421,760.32965,813.1135,698.68134,814.7253
1758146961.118,1758146961118,0.42100000381469727,421,683.7729,729.707,630.18317,805.05493
1758146961.119,1758146961119,0.4219999313354492,422,804.65204,796.99634,855.42126,801.8315
1758146961.119,1758146961119,0.4219999313354492,422,907.3993,877.1795,877.1795,801.02563
1758146961.12,1758146961120,0.42299985885620117,423,803.44324,814.3223,737.76556,799.41394
1758146961.12,1758146961120,0.42299985885620117,423,687.3993,714.7985,676.52014,790.9524
1758146961.176,1758146961176,0.4790000915527344,479,763.5531,753.0769,851.39197,785.31134
1758146961.177,1758146961177,0.48000001907348633,480,890.87915,855.0183,968.6447,792.5641
1758146961.177,1758146961177,0.48000001907348633,480,842.9304,840.5128,811.0989,795.38464
1758146961.177,1758146961177,0.48000001907348633,480,705.9341,738.5714,677.326,790.9524
1758146961.178,1758146961178,0.4809999465942383,481,730.9158,736.1539,838.9011,791.3553
1758146961.178,1758146961178,0.4809999465942383,481,875.9707,838.9011,996.8498,795.38464
1758146961.179,1758146961179,0.48199987411499023,482,879.19415,865.89746,880.0,801.8315
1758146961.18,1758146961180,0.4830000400543213,483,735.7509,766.3736,647.1062,798.20514
1758146961.18,1758146961180,0.4830000400543213,483,697.0696,714.3956,695.4579,792.5641
1758146961.18,1758146961180,0.4830000400543213,483,828.8278,808.2784,899.34064,798.60803
1758146961.181,1758146961181,0.48399996757507324,484,900.9524,877.5824,924.7253,801.02563
1758146961.181,1758146961181,0.48399996757507324,484,774.43225,794.17584,731.31866,798.20514
1758146961.217,1758146961217,0.5199999809265137,520,680.9524,712.381,639.0476,790.54944
1758146961.218,1758146961218,0.5209999084472656,521,785.7143,773.22345,895.7143,790.54944
1758146961.219,1758146961219,0.5220000743865967,522,901.75824,864.68866,984.35895,801.4286
1758146961.219,1758146961219,0.5220000743865967,522,810.293,818.3516,727.28937,800.2198
1758146961.22,1758146961220,0.5230000019073486,523,685.38464,723.2601,666.8498,793.36993
1758146961.22,1758146961220,0.5230000019073486,523,754.68866,754.68866,931.5751,793.36993
1758146961.221,1758146961221,0.5239999294281006,524,898.1319,857.03296,959.7802,801.8315
1758146961.221,1758146961221,0.5239999294281006,524,861.4652,850.989,745.0183,805.05493
1758146961.222,1758146961222,0.5249998569488525,525,720.84247,749.85345,707.5458,800.6227
1758146961.222,1758146961222,0.5249998569488525,525,728.9011,731.7216,731.7216,797.3993
1758146961.223,1758146961223,0.5260000228881836,526,863.8828,830.0366,872.74725,798.20514
1758146961.223,1758146961223,0.5260000228881836,526,893.69965,879.19415,872.3443,802.23444
1758146961.266,1758146961266,0.5690000057220459,569,758.315,784.10254,716.8132,799.81683
1758146961.266,1758146961266,0.5690000057220459,569,695.4579,717.2161,726.4835,790.9524
1758146961.267,1758146961267,0.5699999332427979,570,819.5604,799.81683,938.8278,792.5641
1758146961.267,1758146961267,0.5699999332427979,570,909.81683,884.43225,909.81683,800.6227
1758146961.268,1758146961268,0.5709998607635498,571,788.5348,813.91943,686.5934,800.2198
1758146961.268,1758146961268,0.5709998607635498,571,686.5934,726.8865,743.4066,796.1905
1758146961.268,1758146961268,0.5709998607635498,571,788.5348,786.1172,901.3553,802.23444
1758146961.268,1758146961268,0.5709998607635498,571,902.5641,880.80585,862.27106,809.4872
1758146961.27,1758146961270,0.5729999542236328,573,820.3663,838.0952,732.52747,807.0696
1758146961.27,1758146961270,0.5729999542236328,573,695.05493,737.76556,695.05493,799.41394
1758146961.271,1758146961271,0.5739998817443848,574,742.6007,752.674,812.3077,797.8022
1758146961.271,1758146961271,0.5739998817443848,574,869.92676,852.6007,867.50916,803.8461
1758146961.322,1758146961322,0.625,625,848.5714,859.0476,805.8608,804.2491
1758146961.323,1758146961323,0.625999927520752,626,715.2015,758.315,718.022,799.41394
1758146961.323,1758146961323,0.625999927520752,626,707.9487,731.31866,760.7326,796.5934
1758146961.323,1758146961323,0.625999927520752,626,839.304,823.9927,904.17584,796.99634
1758146961.324,1758146961324,0.6269998550415039,627,886.04395,880.0,905.78754,805.05493
1758146961.324,1758146961324,0.6269998550415039,627,759.5238,792.96704,783.2967,806.6667
1758146961.324,1758146961324,0.6269998550415039,627,687.3993,717.2161,734.94507,798.20514
1758146961.325,1758146961325,0.628000020980835,628,803.0403,789.34064,845.34796,798.60803
1758146961.325,1758146961325,0.628000020980835,628,900.9524,875.56775,881.6117,803.0403
1758146961.325,1758146961325,0.628000020980835,628,793.36993,812.71063,673.69965,803.44324
1758146961.326,1758146961326,0.6289999485015869,629,691.02563,724.87177,659.59705,799.81683
1758146961.326,1758146961326,0.6289999485015869,629,769.59705,768.3883,834.87177,796.99634
1758146961.393,1758146961393,0.6959998607635498,696,890.4762,867.50916,943.2601,799.41394
1758146961.394,1758146961394,0.6970000267028809,697,834.4689,843.73627,773.6264,804.65204
1758146961.395,1758146961395,0.6979999542236328,698,703.5165,741.79486,643.47986,803.44324
1758146961.395,1758146961395,0.6979999542236328,698,736.9597,743.00366,750.65936,799.81683
1758146961.396,1758146961396,0.6989998817443848,699,876.77655,846.9597,959.7802,805.4579
1758146961.396,1758146961396,0.6989998817443848,699,876.3736,874.35895,931.978,811.9048
1758146961.397,1758146961397,0.7000000476837158,700,738.5714,775.64105,701.9048,807.8755
1758146961.397,1758146961397,0.7000000476837158,700,715.2015,731.7216,667.6557,800.6227
1758146961.398,1758146961398,0.7009999752044678,701,845.34796,822.381,876.3736,799.81683
1758146961.398,1758146961398,0.7009999752044678,701,906.5934,888.86444,925.5311,806.26373
1758146961.401,1758146961401,0.7039999961853027,704,778.86444,802.23444,688.20514,806.6667
1758146961.401,1758146961401,0.7039999961853027,704,697.47253,722.8571,704.3223,801.8315
1758146961.442,1758146961442,0.744999885559082,745,811.9048,788.5348,877.1795,801.8315
1758146961.442,1758146961442,0.744999885559082,745,916.6667,880.80585,909.011,805.4579
1758146961.443,1758146961443,0.7460000514984131,746,817.1429,827.2161,731.7216,803.44324
1758146961.443,1758146961443,0.7460000514984131,746,702.71063,734.94507,645.89746,803.44324
1758146961.444,1758146961444,0.746999979019165,747,774.0293,773.22345,883.22345,805.8608
1758146961.444,1758146961444,0.746999979019165,747,902.96704,877.1795,1050.0366,810.293
1758146961.444,1758146961444,0.746999979019165,747,852.1978,865.89746,776.8498,812.3077
1758146961.444,1758146961444,0.746999979019165,747,710.7692,759.92676,592.3077,803.44324
1758146961.445,1758146961445,0.747999906539917,748,730.5128,750.65936,801.02563,799.81683
1758146961.445,1758146961445,0.747999906539917,748,870.7326,848.5714,888.0586,803.0403
1758146961.445,1758146961445,0.747999906539917,748,881.6117,879.19415,796.1905,806.6667
1758146961.446,1758146961446,0.749000072479248,749,738.5714,781.685,677.72894,805.4579
1758146961.489,1758146961489,0.7920000553131104,792,699.0842,729.707,792.1612,800.2198
1758146961.49,1758146961490,0.7929999828338623,793,831.6484,818.3516,935.6044,801.4286
1758146961.49,1758146961490,0.7929999828338623,793,901.3553,889.2674,863.0769,805.05493
1758146961.49,1758146961490,0.7929999828338623,793,776.04395,809.89014,688.20514,803.0403
1758146961.491,1758146961491,0.7939999103546143,794,689.011,725.6777,689.81683,799.41394
1758146961.491,1758146961491,0.7939999103546143,794,799.41394,792.1612,940.4396,805.05493
1758146961.492,1758146961492,0.7950000762939453,795,916.6667,886.8498,939.2308,813.91943
1758146961.492,1758146961492,0.7950000762939453,795,828.8278,839.304,703.5165,809.4872
1758146961.492,1758146961492,0.7950000762939453,795,701.9048,737.3626,619.707,800.2198
1758146961.493,1758146961493,0.7960000038146973,796,760.32965,763.1502,809.0842,799.81683
1758146961.493,1758146961493,0.7960000038146973,796,893.69965,871.9414,960.58606,806.26373
1758146961.493,1758146961493,0.7960000038146973,796,856.63007,870.32965,814.3223,806.6667
1758146961.546,1758146961546,0.8489999771118164,849,715.6044,766.3736,675.31134,802.6374
1758146961.547,1758146961547,0.8499999046325684,850,722.0513,746.2271,778.0586,802.6374
1758146961.547,1758146961547,0.8499999046325684,850,861.4652,839.707,910.6227,804.2491
1758146961.547,1758146961547,0.8499999046325684,850,893.69965,878.3883,860.65936,805.05493
1758146961.548,1758146961548,0.8510000705718994,851,761.13556,788.1319,770.40295,803.0403
1758146961.548,1758146961548,0.8510000705718994,851,695.05493,719.6337,749.85345,794.57874
1758146961.548,1758146961548,0.8510000705718994,851,804.2491,791.3553,853.00366,794.17584
1758146961.549,1758146961549,0.8519999980926514,852,892.0879,868.315,897.326,800.6227
1758146961.549,1758146961549,0.8519999980926514,852,782.0879,805.8608,747.4359,802.23444
1758146961.549,1758146961549,0.8519999980926514,852,674.5055,721.6484,610.84247,793.7729
1758146961.55,1758146961550,0.8529999256134033,853,769.59705,772.8205,840.9158,796.99634
1758146961.55,1758146961550,0.8529999256134033,853,896.9231,868.71796,929.15753,806.6667
1758146961.582,1758146961582,0.8849999904632568,885,824.3956,834.4689,770.40295,805.8608
1758146961.583,1758146961583,0.8859999179840088,886,697.47253,736.1539,696.26373,800.2198
1758146961.584,1758146961584,0.8870000839233398,887,737.76556,746.2271,788.5348,799.011
1758146961.584,1758146961584,0.8870000839233398,887,873.1502,845.7509,921.0989,805.05493
1758146961.585,1758146961585,0.8880000114440918,888,859.85345,859.45056,840.10986,808.2784
1758146961.585,1758146961585,0.8880000114440918,888,725.6777,767.5824,745.82416,801.4286
1758146961.586,1758146961586,0.8889999389648438,889,716.0073,731.31866,776.8498,792.5641
1758146961.587,1758146961587,0.8899998664855957,890,839.707,813.5165,814.7253,793.7729
1758146961.587,1758146961587,0.8899998664855957,890,882.8205,869.12085,810.293,796.5934
1758146961.588,1758146961588,0.8910000324249268,891,766.3736,790.54944,729.707,796.1905
1758146961.588,1758146961588,0.8910000324249268,891,701.9048,726.4835,718.022,797.3993
1758146961.589,1758146961589,0.8919999599456787,892,809.89014,796.99634,842.52747,802.23444
1758146961.592,1758146961592,0.8949999809265137,895,905.38464,881.6117,933.9927,806.6667
1758146961.593,1758146961593,0.8959999084472656,896,809.89014,826.0073,784.10254,805.8608
1758146961.595,1758146961595,0.8980000019073486,898,702.71063,732.1245,672.49084,796.1905
1758146961.595,1758146961595,0.8980000019073486,898,771.2088,767.98535,842.9304,792.96704
1758146961.595,1758146961595,0.8980000019073486,898,888.86444,862.27106,956.9597,799.81683
1758146961.596,1758146961596,0.8989999294281006,899,836.8865,845.34796,864.68866,800.6227
1758146961.596,1758146961596,0.8989999294281006,899,708.7546,746.63007,668.46155,797.8022
1758146961.597,1758146961597,0.8999998569488525,900,730.5128,739.3773,702.71063,794.17584
1758146961.597,1758146961597,0.8999998569488525,900,867.1062,840.9158,978.71796,800.2198
1758146961.597,1758146961597,0.8999998569488525,900,874.7619,871.53845,815.12823,809.4872
1758146961.598,1758146961598,0.9010000228881836,901,739.3773,774.0293,714.7985,803.44324
1758146961.598,1758146961598,0.9010000228881836,901,708.3516,724.0659,749.45056,797.8022
1758146961.627,1758146961627,0.9300000667572021,930,838.9011,805.05493,840.9158,799.81683
1758146961.627,1758146961627,0.9300000667572021,930,906.1905,871.13556,924.3223,803.0403
1758146961.627,1758146961627,0.9300000667572021,930,786.9231,792.96704,747.4359,803.8461
1758146961.628,1758146961628,0.9309999942779541,931,704.3223,714.3956,644.68866,801.02563
1758146961.628,1758146961628,0.9309999942779541,931,806.6667,778.0586,858.24176,801.4286
1758146961.628,1758146961628,0.9309999942779541,931,911.02563,864.2857,1042.381,805.05493
1758146961.629,1758146961629,0.931999921798706,932,824.3956,819.5604,764.7619,796.1905
1758146961.63,1758146961630,0.9330000877380371,933,716.4103,737.3626,568.5348,792.5641
1758146961.631,1758146961631,0.9340000152587891,934,766.77655,750.2564,830.0366,800.6227
1758146961.631,1758146961631,0.9340000152587891,934,880.80585,842.9304,985.16486,807.8755
1758146961.632,1758146961632,0.934999942779541,935,844.1392,843.3333,773.6264,810.293
1758146961.632,1758146961632,0.934999942779541,935,707.5458,736.1539,659.59705,807.0696
1758146961.698,1758146961698,1.000999927520752,1001,711.5751,714.7985,755.09155,804.2491
1758146961.699,1758146961699,1.001999855041504,1002,835.2747,805.4579,932.381,809.0842
1758146961.699,1758146961699,1.001999855041504,1002,852.1978,852.6007,917.8755,817.1429
1758146961.7,1758146961700,1.003000020980835,1003,712.381,753.0769,598.7546,811.9048
1758146961.701,1758146961701,1.003999948501587,1004,656.77655,686.99634,667.6557,806.6667
1758146961.701,1758146961701,1.003999948501587,1004,776.04395,767.5824,979.92676,809.89014
1758146961.702,1758146961702,1.0049998760223389,1005,848.97437,838.0952,889.67035,819.15753
1758146961.702,1758146961702,1.0049998760223389,1005,735.34796,766.77655,615.6777,820.3663
1758146961.702,1758146961702,1.0049998760223389,1005,639.0476,679.7436,679.34064,814.3223
1758146961.702,1758146961702,1.0049998760223389,1005,725.6777,731.31866,806.26373,811.0989
1758146961.703,1758146961703,1.00600004196167,1006,838.9011,827.619,884.43225,816.337
1758146961.703,1758146961703,1.00600004196167,1006,762.3443,788.1319,730.5128,821.1722
1758146961.729,1758146961729,1.0320000648498535,1032,642.674,693.8461,621.31866,816.7399
1758146961.729,1758146961729,1.0320000648498535,1032,692.6374,712.381,773.6264,815.5311
1758146961.73,1758146961730,1.0329999923706055,1033,818.7546,805.4579,907.3993,820.7692
1758146961.73,1758146961730,1.0329999923706055,1033,797.3993,814.3223,792.5641,821.978
1758146961.73,1758146961730,1.0329999923706055,1033,659.19415,718.022,682.5641,814.3223
1758146961.731,1758146961731,1.0339999198913574,1034,654.7619,691.4286,793.36993,810.293
1758146961.731,1758146961731,1.0339999198913574,1034,796.1905,789.7436,913.44324,814.3223
1758146961.731,1758146961731,1.0339999198913574,1034,834.87177,842.52747,827.2161,819.15753
1758146961.732,1758146961732,1.0350000858306885,1035,705.12823,756.30035,632.1978,815.9341
1758146961.732,1758146961732,1.0350000858306885,1035,653.95605,699.89014,655.16486,811.0989
1758146961.732,1758146961732,1.0350000858306885,1035,775.2381,778.46155,821.1722,811.0989
1758146961.733,1758146961733,1.0360000133514404,1036,871.9414,864.2857,880.40295,815.5311
1758146961.791,1758146961791,1.0939998626708984,1094,772.01465,806.6667,749.45056,813.1135
1758146961.792,1758146961792,1.0950000286102295,1095,668.86444,719.6337,678.1319,802.23444
1758146961.793,1758146961793,1.0959999561309814,1096,757.1062,766.3736,825.6044,801.8315
1758146961.793,1758146961793,1.0959999561309814,1096,881.2088,868.315,873.5531,808.68134
1758146961.793,1758146961793,1.0959999561309814,1096,810.293,839.707,771.6117,806.26373
1758146961.793,1758146961793,1.0959999561309814,1096,678.5348,738.5714,766.3736,797.8022
1758146961.795,1758146961795,1.0980000495910645,1098,724.4689,752.674,805.8608,798.60803
1758146961.795,1758146961795,1.0980000495910645,1098,863.0769,850.18317,879.59705,806.6667
1758146961.796,1758146961796,1.0989999771118164,1099,860.2564,859.45056,839.707,805.8608
1758146961.796,1758146961796,1.0989999771118164,1099,731.7216,761.9414,632.1978,796.5934
1758146961.797,1758146961797,1.0999999046325684,1100,709.9634,721.2454,624.1392,792.1612
1758146961.797,1758146961797,1.0999999046325684,1100,844.5421,813.91943,868.315,798.60803
1758146961.835,1758146961835,1.1380000114440918,1138,902.96704,887.6557,901.3553,807.0696
1758146961.835,1758146961835,1.1380000114440918,1138,773.6264,815.12823,718.8278,803.8461
1758146961.836,1758146961836,1.1389999389648438,1139,688.60803,745.0183,699.4872,799.81683
1758146961.836,1758146961836,1.1389999389648438,1139,784.90845,809.0842,819.5604,804.2491
1758146961.836,1758146961836,1.1389999389648438,1139,882.01465,887.25275,932.7839,805.8608
1758146961.837,1758146961837,1.1399998664855957,1140,794.17584,837.28937,823.9927,805.4579
1758146961.837,1758146961837,1.1399998664855957,1140,687.8022,745.82416,670.07324,801.02563
1758146961.837,1758146961837,1.1399998664855957,1140,759.12085,770.80585,739.3773,796.1905
1758146961.838,1758146961838,1.1410000324249268,1141,884.83514,866.7033,887.6557,803.44324
1758146961.838,1758146961838,1.1410000324249268,1141,839.304,856.2271,807.0696,809.0842
1758146961.838,1758146961838,1.1410000324249268,1141,711.978,761.9414,651.13556,802.23444
1758146961.839,1758146961839,1.1419999599456787,1142,733.73627,757.50916,737.76556,797.8022
1758146961.876,1758146961876,1.178999900817871,1179,866.30035,854.21246,955.7509,801.8315
1758146961.876,1758146961876,1.178999900817871,1179,877.1795,883.22345,860.2564,803.44324
1758146961.877,1758146961877,1.1800000667572021,1180,751.4652,791.75824,684.17584,797.8022
1758146961.877,1758146961877,1.1800000667572021,1180,720.4396,746.2271,718.022,791.75824
1758146961.877,1758146961877,1.1800000667572021,1180,839.304,824.3956,855.0183,792.96704
1758146961.878,1758146961878,1.180999994277954,1181,910.6227,892.49084,963.8095,798.60803
1758146961.878,1758146961878,1.180999994277954,1181,801.8315,813.5165,743.4066,794.17584
1758146961.878,1758146961878,1.180999994277954,1181,716.8132,729.707,651.53845,788.5348
1758146961.88,1758146961880,1.183000087738037,1183,816.337,787.72894,860.2564,790.54944
1758146961.88,1758146961880,1.183000087738037,1183,921.0989,871.9414,867.50916,793.7729
1758146961.881,1758146961881,1.184000015258789,1184,838.9011,830.84247,767.98535,799.81683
1758146961.881,1758146961881,1.184000015258789,1184,727.28937,744.61536,694.65204,799.011
1758146961.95,1758146961950,1.253000020980835,1253,783.69965,767.5824,797.3993,792.96704
1758146961.951,1758146961951,1.253999948501587,1254,900.54944,852.6007,921.0989,796.1905
1758146961.952,1758146961952,1.2549998760223389,1255,867.50916,850.18317,804.65204,801.8315
1758146961.952,1758146961952,1.2549998760223389,1255,740.989,759.92676,687.8022,802.23444
1758146961.953,1758146961953,1.25600004196167,1256,749.0476,740.989,807.0696,799.81683
1758146961.953,1758146961953,1.25600004196167,1256,875.9707,838.0952,923.91943,798.60803
1758146961.954,1758146961954,1.2569999694824219,1257,898.93774,879.59705,890.87915,800.2198
1758146961.955,1758146961955,1.2579998970031738,1258,768.7912,788.1319,648.71796,799.41394
1758146961.955,1758146961955,1.2579998970031738,1258,720.0366,732.1245,626.1539,795.78754
1758146961.956,1758146961956,1.2590000629425049,1259,840.9158,813.1135,878.3883,799.41394
1758146961.956,1758146961956,1.2590000629425049,1259,919.4872,895.7143,917.0696,807.47253
1758146961.957,1758146961957,1.2599999904632568,1260,806.6667,823.5897,749.45056,804.65204
1758146961.994,1758146961994,1.2969999313354492,1297,712.381,737.3626,690.2198,800.2198
1758146961.994,1758146961994,1.2969999313354492,1297,805.8608,790.9524,838.0952,801.8315
1758146961.995,1758146961995,1.2979998588562012,1298,917.8755,886.04395,935.2015,807.47253
1758146961.995,1758146961995,1.2979998588562012,1298,838.9011,850.18317,753.0769,808.68134
1758146961.995,1758146961995,1.2979998588562012,1298,711.1722,747.03296,705.9341,802.23444
1758146961.996,1758146961996,1.2990000247955322,1299,761.53845,761.13556,884.83514,798.60803
1758146961.996,1758146961996,1.2990000247955322,1299,894.10254,862.27106,929.15753,801.8315
1758146961.997,1758146961997,1.2999999523162842,1300,866.7033,871.13556,806.6667,803.0403
1758146961.997,1758146961997,1.2999999523162842,1300,726.08057,769.59705,693.44324,797.8022
1758146961.997,1758146961997,1.2999999523162842,1300,716.0073,734.1392,735.7509,791.3553
1758146961.999,1758146961999,1.3020000457763672,1302,847.76556,827.2161,862.674,796.5934
1758146961.999,1758146961999,1.3020000457763672,1302,889.2674,880.40295,865.4945,805.8608
1758146962.03,1758146962030,1.3329999446868896,1333,761.13556,795.38464,727.6923,803.8461
1758146962.03,1758146962030,1.3329999446868896,1333,700.293,734.1392,721.2454,802.23444
1758146962.031,1758146962031,1.3339998722076416,1334,814.3223,805.4579,882.4176,805.05493
1758146962.032,1758146962032,1.3350000381469727,1335,906.1905,887.6557,897.72894,807.47253
1758146962.032,1758146962032,1.3350000381469727,1335,803.8461,824.3956,755.09155,807.0696
1758146962.033,1758146962033,1.3359999656677246,1336,703.91943,733.3333,751.4652,799.41394
1758146962.033,1758146962033,1.3359999656677246,1336,788.93774,779.2674,863.0769,798.20514
1758146962.034,1758146962034,1.3369998931884766,1337,902.96704,876.3736,852.6007,805.4579
1758146962.034,1758146962034,1.3369998931884766,1337,832.0513,846.1539,739.7802,807.8755
1758146962.035,1758146962035,1.3380000591278076,1338,704.3223,743.4066,692.23444,799.81683
1758146962.035,1758146962035,1.3380000591278076,1338,740.18317,750.2564,824.7985,793.36993
1758146962.036,1758146962036,1.3389999866485596,1339,873.1502,852.1978,952.52747,797.8022
1758146962.077,1758146962077,1.3799998760223389,1380,876.77655,873.5531,829.2308,804.2491
1758146962.077,1758146962077,1.3799998760223389,1380,738.5714,775.2381,679.7436,799.41394
1758146962.078,1758146962078,1.38100004196167,1381,712.381,734.94507,753.0769,794.57874
1758146962.078,1758146962078,1.38100004196167,1381,843.3333,825.2015,855.42126,797.8022
1758146962.078,1758146962078,1.38100004196167,1381,904.9817,888.0586,884.83514,799.41394
1758146962.079,1758146962079,1.3819999694824219,1382,787.72894,806.6667,828.4249,799.41394
1758146962.079,1758146962079,1.3819999694824219,1382,711.978,734.94507,684.57874,795.38464
1758146962.079,1758146962079,1.3819999694824219,1382,817.5458,801.02563,829.6337,791.3553
1758146962.08,1758146962080,1.3829998970031738,1383,918.68134,887.6557,961.79486,799.41394
1758146962.08,1758146962080,1.3829998970031738,1383,821.978,833.663,705.9341,803.44324
1758146962.08,1758146962080,1.3829998970031738,1383,704.3223,736.55676,652.74725,797.3993
1758146962.081,1758146962081,1.3840000629425049,1384,779.67035,775.64105,835.6777,796.1905
1758146962.12,1758146962120,1.4229998588562012,1423,904.57874,879.59705,954.5421,803.8461
1758146962.12,1758146962120,1.4229998588562012,1423,857.03296,863.0769,819.15753,808.68134
1758146962.121,1758146962121,1.4240000247955322,1424,727.28937,757.9121,689.41394,805.05493
1758146962.121,1758146962121,1.4240000247955322,1424,748.6447,752.27106,744.21246,801.8315
1758146962.121,1758146962121,1.4240000247955322,1424,886.8498,854.21246,916.6667,805.8608
1758146962.121,1758146962121,1.4240000247955322,1424,896.1172,889.2674,915.8608,811.50183
1758146962.122,1758146962122,1.4249999523162842,1425,749.45056,786.9231,690.2198,805.4579
1758146962.122,1758146962122,1.4249999523162842,1425,707.1429,728.9011,689.011,799.011
1758146962.122,1758146962122,1.4249999523162842,1425,837.28937,819.15753,872.3443,806.26373
1758146962.123,1758146962123,1.4259998798370361,1426,909.81683,894.10254,915.8608,816.337
1758146962.123,1758146962123,1.4259998798370361,1426,790.14655,816.337,738.5714,812.3077
1758146962.123,1758146962123,1.4259998798370361,1426,700.293,732.1245,640.65936,810.696
1758146962.183,1758146962183,1.4860000610351562,1486,802.6374,791.3553,870.32965,812.71063
1758146962.184,1758146962184,1.4869999885559082,1487,914.2491,882.8205,963.8095,811.0989
1758146962.184,1758146962184,1.4869999885559082,1487,826.8132,835.6777,755.09155,806.6667
1758146962.184,1758146962184,1.4869999885559082,1487,702.3077,735.7509,643.8828,797.8022
1758146962.185,1758146962185,1.4879999160766602,1488,764.7619,761.53845,843.73627,792.96704
1758146962.185,1758146962185,1.4879999160766602,1488,900.14655,869.92676,1011.75824,801.8315
1758146962.185,1758146962185,1.4879999160766602,1488,865.09155,869.12085,826.8132,809.4872
1758146962.186,1758146962186,1.4890000820159912,1489,724.0659,753.8828,638.6447,801.4286
1758146962.186,1758146962186,1.4890000820159912,1489,726.08057,728.49817,740.58606,796.1905
1758146962.186,1758146962186,1.4890000820159912,1489,854.61536,829.2308,873.95605,799.81683
1758146962.186,1758146962186,1.4890000820159912,1489,882.4176,878.3883,836.4835,803.8461
1758146962.187,1758146962187,1.4900000095367432,1490,753.0769,781.685,692.23444,803.0403
1758146962.228,1758146962228,1.5309998989105225,1531,703.5165,719.6337,715.2015,799.011
1758146962.229,1758146962229,1.5320000648498535,1532,831.2454,808.68134,902.1612,801.4286
1758146962.23,1758146962230,1.5329999923706055,1533,912.23444,888.0586,917.47253,809.0842
1758146962.231,1758146962231,1.5339999198913574,1534,792.5641,809.89014,720.84247,807.8755
1758146962.231,1758146962231,1.5339999198913574,1534,693.8461,717.619,708.7546,801.8315
1758146962.231,1758146962231,1.5339999198913574,1534,793.7729,772.8205,934.3956,799.011
1758146962.232,1758146962232,1.5350000858306885,1535,915.8608,873.5531,964.21246,803.8461
1758146962.232,1758146962232,1.5350000858306885,1535,836.4835,832.8571,667.6557,806.6667
1758146962.232,1758146962232,1.5350000858306885,1535,709.15753,726.4835,664.83514,799.81683
1758146962.233,1758146962233,1.5360000133514404,1536,757.50916,747.03296,851.79486,799.41394
1758146962.233,1758146962233,1.5360000133514404,1536,889.67035,846.55676,869.92676,805.4579
1758146962.233,1758146962233,1.5360000133514404,1536,869.5238,850.58606,759.92676,807.47253
1758146962.26,1758146962260,1.562999963760376,1563,726.8865,751.4652,651.53845,799.81683
1758146962.261,1758146962261,1.563999891281128,1564,715.2015,728.49817,761.9414,796.1905
1758146962.261,1758146962261,1.563999891281128,1564,855.42126,826.8132,906.99634,802.6374
1758146962.261,1758146962261,1.563999891281128,1564,906.5934,881.6117,857.8388,809.89014
1758146962.262,1758146962262,1.565000057220459,1565,775.2381,789.34064,758.315,806.6667
1758146962.262,1758146962262,1.565000057220459,1565,706.7399,721.2454,815.9341,799.41394
1758146962.262,1758146962262,1.565000057220459,1565,824.3956,800.6227,875.56775,799.011
1758146962.263,1758146962263,1.565999984741211,1566,916.26373,885.64105,871.13556,806.26373
1758146962.263,1758146962263,1.565999984741211,1566,802.23444,820.3663,732.52747,807.47253
1758146962.263,1758146962263,1.565999984741211,1566,689.81683,722.4542,639.0476,799.011
1758146962.264,1758146962264,1.566999912261963,1567,779.2674,765.16486,828.8278,800.2198
1758146962.264,1758146962264,1.566999912261963,1567,906.5934,866.7033,961.79486,805.8608
1758146962.295,1758146962295,1.5980000495910645,1598,842.52747,839.304,830.0366,802.6374
1758146962.295,1758146962295,1.5980000495910645,1598,712.7839,732.9304,664.0293,796.5934
1758146962.296,1758146962296,1.5989999771118164,1599,748.6447,737.76556,751.06226,798.60803
1758146962.296,1758146962296,1.5989999771118164,1599,883.6264,844.1392,895.7143,805.8608
1758146962.298,1758146962298,1.6010000705718994,1601,875.9707,867.1062,873.1502,810.696
1758146962.298,1758146962298,1.6010000705718994,1601,736.9597,767.5824,768.3883,805.8608
1758146962.298,1758146962298,1.6010000705718994,1601,711.5751,722.8571,743.4066,799.011
1758146962.299,1758146962299,1.6019999980926514,1602,842.52747,812.3077,816.337,801.8315
1758146962.299,1758146962299,1.6019999980926514,1602,898.93774,875.9707,849.7802,804.2491
1758146962.299,1758146962299,1.6019999980926514,1602,768.7912,789.34064,735.7509,801.02563
1758146962.3,1758146962300,1.6029999256134033,1603,686.99634,708.7546,682.5641,796.5934
1758146962.3,1758146962300,1.6029999256134033,1603,799.81683,783.69965,892.8938,801.4286
1758146962.328,1758146962328,1.63100004196167,1631,909.011,881.6117,951.31866,806.6667
1758146962.328,1758146962328,1.63100004196167,1631,811.50183,823.1868,750.65936,801.02563
1758146962.329,1758146962329,1.6319999694824219,1632,695.8608,726.4835,695.05493,798.20514
1758146962.329,1758146962329,1.6319999694824219,1632,773.22345,768.7912,833.2601,804.65204
1758146962.329,1758146962329,1.6319999694824219,1632,899.7436,866.7033,985.56775,806.26373
1758146962.33,1758146962330,1.6329998970031738,1633,848.5714,847.76556,851.79486,806.26373
1758146962.33,1758146962330,1.6329998970031738,1633,710.7692,740.989,661.6117,799.81683
1758146962.33,1758146962330,1.6329998970031738,1633,729.304,723.663,733.73627,790.14655
1758146962.331,1758146962331,1.6340000629425049,1634,874.35895,826.8132,900.14655,796.99634
1758146962.331,1758146962331,1.6340000629425049,1634,883.6264,859.0476,812.3077,804.65204
1758146962.331,1758146962331,1.6340000629425049,1634,737.3626,753.0769,634.61536,798.60803
1758146962.331,1758146962331,1.6340000629425049,1634,703.5165,706.7399,676.1172,793.36993
1758146962.396,1758146962396,1.6989998817443848,1699,836.4835,799.81683,927.5458,796.5934
1758146962.396,1758146962396,1.6989998817443848,1699,912.6374,876.77655,965.0183,802.6374
1758146962.397,1758146962397,1.7000000476837158,1700,792.1612,800.2198,732.9304,799.41394
1758146962.397,1758146962397,1.7000000476837158,1700,697.0696,715.2015,664.83514,793.7729
1758146962.397,1758146962397,1.7000000476837158,1700,802.23444,780.4762,876.3736,799.81683
1758146962.398,1758146962398,1.7009999752044678,1701,915.8608,877.1795,1017.8022,805.05493
1758146962.399,1758146962399,1.7019999027252197,1702,826.0073,828.022,779.2674,803.8461
1758146962.399,1758146962399,1.7019999027252197,1702,699.0842,723.663,571.75824,798.20514
1758146962.4,1758146962400,1.7030000686645508,1703,755.89746,746.63007,759.5238,795.78754
1758146962.4,1758146962400,1.7030000686645508,1703,893.69965,857.03296,942.4542,805.05493
1758146962.4,1758146962400,1.7030000686645508,1703,859.85345,858.24176,789.34064,807.8755
1758146962.401,1758146962401,1.7039999961853027,1704,716.8132,749.0476,633.8095,799.011
1758146962.449,1758146962449,1.751999855041504,1752,720.0366,729.304,781.685,796.5934
1758146962.449,1758146962449,1.751999855041504,1752,858.24176,835.6777,966.63007,801.8315
1758146962.45,1758146962450,1.753000020980835,1753,889.67035,880.0,883.22345,810.293
1758146962.45,1758146962450,1.753000020980835,1753,755.09155,782.8938,686.99634,806.26373
1758146962.45,1758146962450,1.753000020980835,1753,698.68134,720.84247,726.8865,795.78754
1758146962.451,1758146962451,1.753999948501587,1754,823.1868,803.44324,975.89746,802.23444
1758146962.451,1758146962451,1.753999948501587,1754,906.99634,890.07324,925.9341,813.91943
1758146962.451,1758146962451,1.753999948501587,1754,787.326,812.71063,692.23444,809.0842
1758146962.452,1758146962452,1.7549998760223389,1755,684.57874,719.6337,726.4835,798.60803
1758146962.452,1758146962452,1.7549998760223389,1755,775.2381,772.01465,801.8315,800.6227
1758146962.452,1758146962452,1.7549998760223389,1755,899.34064,869.5238,954.5421,811.50183
1758146962.453,1758146962453,1.75600004196167,1756,825.2015,834.87177,780.87915,810.696
1758146962.488,1758146962488,1.7909998893737793,1791,693.8461,731.31866,606.8132,803.8461
1758146962.489,1758146962489,1.7920000553131104,1792,748.6447,750.2564,832.4542,801.4286
1758146962.489,1758146962489,1.7920000553131104,1792,888.86444,854.21246,947.28937,804.65204
1758146962.489,1758146962489,1.7920000553131104,1792,868.71796,862.674,811.50183,808.68134
1758146962.49,1758146962490,1.7929999828338623,1793,727.6923,760.7326,693.8461,804.2491
1758146962.49,1758146962490,1.7929999828338623,1793,711.5751,724.4689,787.326,797.3993
1758146962.49,1758146962490,1.7929999828338623,1793,844.1392,814.3223,911.02563,796.99634
1758146962.491,1758146962491,1.7939999103546143,1794,896.9231,867.1062,833.2601,800.2198
1758146962.492,1758146962492,1.7950000762939453,1795,768.3883,772.4176,682.96704,795.78754
1758146962.493,1758146962493,1.7960000038146973,1796,699.89014,702.3077,726.4835,790.9524
1758146962.493,1758146962493,1.7960000038146973,1796,815.9341,791.75824,904.17584,798.60803
1758146962.493,1758146962493,1.7960000038146973,1796,904.9817,890.87915,911.8315,809.0842
1758146962.556,1758146962556,1.8589999675750732,1859,791.3553,832.8571,731.7216,809.89014
1758146962.556,1758146962556,1.8589999675750732,1859,671.685,739.7802,690.6227,805.4579
1758146962.556,1758146962556,1.8589999675750732,1859,751.8681,780.87915,887.25275,805.05493
1758146962.557,1758146962557,1.8599998950958252,1860,881.2088,880.0,943.663,809.0842
1758146962.557,1758146962557,1.8599998950958252,1860,824.3956,853.00366,772.4176,807.47253
1758146962.557,1758146962557,1.8599998950958252,1860,696.26373,747.4359,743.8095,802.23444
1758146962.558,1758146962558,1.8610000610351562,1861,730.9158,745.82416,762.74725,801.4286
1758146962.558,1758146962558,1.8610000610351562,1861,866.7033,846.55676,851.79486,806.6667
1758146962.558,1758146962558,1.8610000610351562,1861,867.1062,873.1502,881.2088,810.293
1758146962.558,1758146962558,1.8610000610351562,1861,726.8865,764.7619,624.94507,805.8608
1758146962.559,1758146962559,1.8619999885559082,1862,702.3077,717.2161,718.022,801.4286
1758146962.559,1758146962559,1.8619999885559082,1862,840.10986,818.7546,892.49084,805.4579
1758146962.586,1758146962586,1.8889999389648438,1889,898.1319,879.59705,850.18317,809.0842
1758146962.586,1758146962586,1.8889999389648438,1889,764.35895,788.1319,718.4249,801.8315
1758146962.587,1758146962587,1.8899998664855957,1890,686.5934,719.2308,699.0842,793.36993
1758146962.587,1758146962587,1.8899998664855957,1890,807.8755,792.96704,847.76556,796.99634
1758146962.587,1758146962587,1.8899998664855957,1890,915.05493,882.4176,983.95605,804.2491
1758146962.588,1758146962588,1.8910000324249268,1891,818.7546,827.619,827.619,801.8315
1758146962.588,1758146962588,1.8910000324249268,1891,703.1135,726.08057,690.6227,795.78754
1758146962.588,1758146962588,1.8910000324249268,1891,767.98535,752.27106,811.0989,796.1905
1758146962.588,1758146962588,1.8910000324249268,1891,894.5055,854.21246,843.73627,800.2198
1758146962.589,1758146962589,1.8919999599456787,1892,851.39197,846.1539,734.1392,801.4286
1758146962.59,1758146962590,1.8929998874664307,1893,718.8278,741.79486,676.52014,799.81683
1758146962.591,1758146962591,1.8940000534057617,1894,735.34796,730.5128,777.6557,797.8022
1758146962.64,1758146962640,1.943000078201294,1943,871.13556,833.663,922.71063,798.60803
1758146962.641,1758146962641,1.944000005722046,1944,887.25275,864.2857,856.63007,795.38464
1758146962.641,1758146962641,1.944000005722046,1944,750.65936,761.53845,687.8022,789.7436
1758146962.642,1758146962642,1.9449999332427979,1945,709.9634,708.7546,689.81683,788.93774
1758146962.642,1758146962642,1.9449999332427979,1945,840.10986,797.3993,939.6337,794.57874
1758146962.642,1758146962642,1.9449999332427979,1945,923.1135,882.4176,1020.6227,803.44324
1758146962.643,1758146962643,1.9459998607635498,1946,798.60803,807.8755,729.304,801.8315
1758146962.643,1758146962643,1.9459998607635498,1946,695.4579,718.8278,604.7985,795.78754
1758146962.643,1758146962643,1.9459998607635498,1946,800.2198,787.326,861.8681,798.20514
1758146962.644,1758146962644,1.9470000267028809,1947,921.0989,890.07324,934.3956,811.0989
1758146962.644,1758146962644,1.9470000267028809,1947,836.4835,843.3333,687.3993,815.12823
1758146962.644,1758146962644,1.9470000267028809,1947,711.1722,740.58606,642.27106,803.8461
1758146962.682,1758146962682,1.9849998950958252,1985,765.9707,763.95605,859.0476,801.02563
1758146962.682,1758146962682,1.9849998950958252,1985,898.5348,869.5238,959.7802,807.0696
1758146962.683,1758146962683,1.9860000610351562,1986,863.8828,867.9121,803.8461,806.6667
1758146962.683,1758146962683,1.9860000610351562,1986,724.4689,759.5238,652.74725,801.4286
1758146962.683,1758146962683,1.9860000610351562,1986,723.663,736.55676,806.26373,803.44324
1758146962.684,1758146962684,1.9869999885559082,1987,858.6447,837.28937,1014.9817,813.1135
1758146962.684,1758146962684,1.9869999885559082,1987,893.2967,881.6117,866.7033,817.9487
1758146962.685,1758146962685,1.9879999160766602,1988,752.674,783.69965,635.42126,813.1135
1758146962.685,1758146962685,1.9879999160766602,1988,689.81683,720.84247,662.4176,805.8608
1758146962.685,1758146962685,1.9879999160766602,1988,813.5165,799.41394,879.59705,808.68134
1758146962.685,1758146962685,1.9879999160766602,1988,908.60803,887.25275,954.1392,816.7399
1758146962.686,1758146962686,1.9890000820159912,1989,794.57874,816.337,704.7253,815.5311
1758146962.719,1758146962719,2.0220000743865967,2022,690.2198,719.2308,719.6337,807.0696
1758146962.719,1758146962719,2.0220000743865967,2022,785.31134,773.22345,901.75824,806.6667
1758146962.72,1758146962720,2.0230000019073486,2023,909.011,874.7619,923.1135,809.0842
1758146962.721,1758146962721,2.0239999294281006,2024,837.28937,843.3333,749.0476,807.0696
1758146962.721,1758146962721,2.0239999294281006,2024,703.91943,743.4066,676.1172,801.8315
1758146962.722,1758146962722,2.0249998569488525,2025,746.63007,754.68866,884.83514,797.3993
1758146962.722,1758146962722,2.0249998569488525,2025,881.6117,857.03296,944.0659,803.8461
1758146962.723,1758146962723,2.0260000228881836,2026,866.30035,869.12085,809.4872,810.696
1758146962.723,1758146962723,2.0260000228881836,2026,722.8571,763.5531,681.75824,804.2491
1758146962.724,1758146962724,2.0269999504089355,2027,701.50183,722.8571,686.5934,794.57874
1758146962.724,1758146962724,2.0269999504089355,2027,839.707,815.12823,868.315,793.7729
1758146962.725,1758146962725,2.0279998779296875,2028,887.25275,874.7619,867.9121,801.8315
1758146962.782,1758146962782,2.0850000381469727,2085,750.2564,783.69965,709.9634,802.6374
1758146962.782,1758146962782,2.0850000381469727,2085,681.3553,709.9634,694.65204,798.20514
1758146962.783,1758146962783,2.0859999656677246,2086,797.8022,782.8938,859.0476,800.2198
1758146962.783,1758146962783,2.0859999656677246,2086,898.1319,871.13556,917.47253,804.65204
1758146962.783,1758146962783,2.0859999656677246,2086,799.011,812.71063,794.57874,803.44324
1758146962.784,1758146962784,2.0869998931884766,2087,690.2198,721.2454,727.6923,799.81683
1758146962.784,1758146962784,2.0869998931884766,2087,770.0,759.12085,831.2454,797.8022
1758146962.785,1758146962785,2.0880000591278076,2088,890.87915,855.0183,857.8388,800.2198
1758146962.785,1758146962785,2.0880000591278076,2088,831.2454,836.4835,736.55676,804.2491
1758146962.786,1758146962786,2.0889999866485596,2089,701.9048,738.1685,701.50183,800.2198
1758146962.786,1758146962786,2.0889999866485596,2089,734.94507,738.1685,811.0989,796.99634
1758146962.786,1758146962786,2.0889999866485596,2089,869.5238,837.6923,908.60803,800.2198
1758146962.818,1758146962818,2.121000051498413,2121,880.80585,871.53845,872.74725,806.6667
1758146962.819,1758146962819,2.121999979019165,2122,750.65936,779.2674,716.8132,805.8608
1758146962.82,1758146962820,2.122999906539917,2123,709.9634,727.6923,701.50183,800.2198
1758146962.821,1758146962821,2.124000072479248,2124,837.28937,813.5165,894.90845,803.0403
1758146962.821,1758146962821,2.124000072479248,2124,900.9524,878.3883,904.9817,806.26373
1758146962.821,1758146962821,2.124000072479248,2124,778.0586,797.3993,774.0293,807.0696
1758146962.822,1758146962822,2.125,2125,695.4579,720.0366,700.293,805.8608
1758146962.822,1758146962822,2.125,2125,800.6227,786.1172,829.6337,803.8461
1758146962.822,1758146962822,2.125,2125,909.81683,883.22345,960.18317,810.293
1758146962.823,1758146962823,2.125999927520752,2126,814.7253,823.5897,704.7253,809.4872
1758146962.823,1758146962823,2.125999927520752,2126,694.2491,716.8132,609.6337,802.23444
1758146962.823,1758146962823,2.125999927520752,2126,761.9414,747.4359,805.05493,801.4286
1758146962.856,1758146962856,2.1589999198913574,2159,893.2967,850.58606,932.381,808.2784
1758146962.856,1758146962856,2.1589999198913574,2159,853.00366,846.1539,815.9341,809.89014
1758146962.856,1758146962856,2.1589999198913574,2159,715.2015,745.0183,679.34064,803.0403
1758146962.857,1758146962857,2.1600000858306885,2160,729.304,729.304,764.7619,803.44324
1758146962.857,1758146962857,2.1600000858306885,2160,871.53845,826.8132,967.8388,805.4579
1758146962.857,1758146962857,2.1600000858306885,2160,895.31134,869.5238,960.989,804.65204
1758146962.858,1758146962858,2.1610000133514404,2161,757.50916,773.22345,726.4835,797.8022
1758146962.858,1758146962858,2.1610000133514404,2161,701.50183,710.3663,628.97437,791.75824
1758146962.858,1758146962858,2.1610000133514404,2161,822.381,793.36993,848.1685,796.99634
1758146962.859,1758146962859,2.1619999408721924,2162,904.57874,872.74725,902.5641,805.8608
1758146962.859,1758146962859,2.1619999408721924,2162,786.52014,798.60803,739.7802,807.0696
1758146962.859,1758146962859,2.1619999408721924,2162,686.5934,711.978,708.3516,799.41394
1758146962.92,1758146962920,2.2230000495910645,2223,782.49084,772.01465,817.1429,798.20514
1758146962.92,1758146962920,2.2230000495910645,2223,906.1905,872.74725,939.2308,803.8461
1758146962.921,1758146962921,2.2239999771118164,2224,829.2308,828.022,785.7143,800.2198
1758146962.921,1758146962921,2.2239999771118164,2224,700.696,722.8571,607.2161,795.78754
1758146962.922,1758146962922,2.2249999046325684,2225,749.0476,740.989,836.08057,797.3993
1758146962.923,1758146962923,2.2260000705718994,2226,887.25275,849.3773,1080.6593,798.60803
1758146962.923,1758146962923,2.2260000705718994,2226,860.65936,859.85345,788.1319,801.8315
1758146962.923,1758146962923,2.2260000705718994,2226,716.8132,755.89746,588.2784,800.2198
1758146962.924,1758146962924,2.2269999980926514,2227,716.8132,729.707,783.69965,794.57874
1758146962.924,1758146962924,2.2269999980926514,2227,848.97437,824.7985,840.5128,795.78754
1758146962.924,1758146962924,2.2269999980926514,2227,887.6557,877.1795,817.9487,804.2491
1758146962.925,1758146962925,2.2279999256134033,2228,753.47986,788.1319,718.8278,805.4579
1758146962.952,1758146962952,2.254999876022339,2255,689.81683,721.2454,692.6374,801.4286
1758146962.953,1758146962953,2.25600004196167,2256,812.3077,798.60803,887.25275,800.2198
1758146962.953,1758146962953,2.25600004196167,2256,906.5934,884.43225,950.5128,806.26373
1758146962.953,1758146962953,2.25600004196167,2256,792.5641,811.9048,668.86444,800.2198
1758146962.954,1758146962954,2.256999969482422,2257,683.36993,718.8278,683.7729,794.17584
1758146962.954,1758146962954,2.256999969482422,2257,775.2381,774.0293,940.0366,801.4286
1758146962.954,1758146962954,2.256999969482422,2257,898.1319,874.35895,941.6484,804.2491
1758146962.955,1758146962955,2.257999897003174,2258,830.0366,843.73627,704.7253,805.8608
1758146962.955,1758146962955,2.257999897003174,2258,699.89014,739.3773,623.73627,803.0403
1758146962.955,1758146962955,2.257999897003174,2258,738.1685,745.42126,820.3663,795.38464
1758146962.956,1758146962956,2.259000062942505,2259,877.1795,851.39197,957.76556,800.6227
1758146962.956,1758146962956,2.259000062942505,2259,873.1502,869.5238,808.2784,810.696
1758146963.02,1758146963020,2.322999954223633,2323,735.7509,765.16486,666.8498,805.4579
1758146963.02,1758146963020,2.322999954223633,2323,716.4103,727.6923,757.1062,800.2198
1758146963.02,1758146963020,2.322999954223633,2323,850.58606,822.7839,927.5458,806.6667
1758146963.021,1758146963021,2.3239998817443848,2324,903.7729,884.83514,880.0,810.696
1758146963.021,1758146963021,2.3239998817443848,2324,776.8498,799.81683,735.7509,807.0696
1758146963.021,1758146963021,2.3239998817443848,2324,699.89014,728.49817,783.2967,800.2198
1758146963.023,1758146963023,2.3259999752044678,2326,809.89014,799.41394,886.04395,802.6374
1758146963.023,1758146963023,2.3259999752044678,2326,910.2198,884.83514,923.91943,808.68134
1758146963.024,1758146963024,2.3269999027252197,2327,805.05493,823.1868,736.1539,806.6667
1758146963.024,1758146963024,2.3269999027252197,2327,687.3993,726.08057,593.5165,801.4286
1758146963.024,1758146963024,2.3269999027252197,2327,764.35895,760.7326,804.2491,801.8315
1758146963.024,1758146963024,2.3269999027252197,2327,893.69965,862.27106,917.47253,807.0696
1758146963.051,1758146963051,2.3540000915527344,2354,844.94507,849.7802,807.47253,809.89014
1758146963.051,1758146963051,2.3540000915527344,2354,709.5604,745.0183,700.293,803.0403
1758146963.052,1758146963052,2.3550000190734863,2355,730.9158,739.3773,772.8205,797.8022
1758146963.052,1758146963052,2.3550000190734863,2355,870.7326,845.34796,881.6117,802.6374
1758146963.052,1758146963052,2.3550000190734863,2355,879.19415,869.5238,858.6447,807.0696
1758146963.053,1758146963053,2.3559999465942383,2356,742.6007,766.77655,777.25275,803.44324
1758146963.053,1758146963053,2.3559999465942383,2356,708.3516,720.84247,741.79486,795.38464
1758146963.053,1758146963053,2.3559999465942383,2356,835.2747,808.68134,832.8571,792.5641
1758146963.054,1758146963054,2.3569998741149902,2357,903.36993,876.3736,908.60803,797.8022
1758146963.054,1758146963054,2.3569998741149902,2357,781.685,797.8022,763.95605,798.20514
1758146963.054,1758146963054,2.3569998741149902,2357,691.8315,716.4103,652.74725,793.36993
1758146963.054,1758146963054,2.3569998741149902,2357,789.7436,775.64105,810.696,795.78754
1758146963.089,1758146963089,2.3919999599456787,2392,899.7436,866.7033,945.2747,802.23444
1758146963.09,1758146963090,2.3929998874664307,2393,814.3223,822.381,788.93774,804.2491
1758146963.09,1758146963090,2.3929998874664307,2393,692.6374,724.0659,666.8498,800.2198
1758146963.09,1758146963090,2.3929998874664307,2393,753.8828,752.674,828.022,798.60803
1758146963.091,1758146963091,2.3940000534057617,2394,890.87915,859.85345,926.7399,805.8608
1758146963.091,1758146963091,2.3940000534057617,2394,867.1062,862.27106,869.12085,810.696
1758146963.091,1758146963091,2.3940000534057617,2394,730.10986,759.12085,709.5604,804.2491
1758146963.092,1758146963092,2.3949999809265137,2395,727.28937,735.34796,701.0989,799.81683
1758146963.093,1758146963093,2.3959999084472656,2396,858.24176,834.87177,922.3077,806.6667
1758146963.094,1758146963094,2.3970000743865967,2397,884.0293,876.3736,847.76556,811.50183
1758146963.094,1758146963094,2.3970000743865967,2397,747.8388,778.46155,667.6557,807.0696
1758146963.094,1758146963094,2.3970000743865967,2397,692.23444,719.6337,667.6557,801.8315
1758146963.162,1758146963162,2.4649999141693115,2465,818.3516,806.26373,937.2161,803.44324
1758146963.163,1758146963163,2.4660000801086426,2466,908.20514,890.87915,983.5531,809.0842
1758146963.163,1758146963163,2.4660000801086426,2466,792.96704,817.1429,674.90845,807.8755
1758146963.164,1758146963164,2.4670000076293945,2467,692.6374,723.663,662.4176,801.02563
1758146963.164,1758146963164,2.4670000076293945,2467,784.90845,773.6264,878.7912,799.41394
1758146963.164,1758146963164,2.4670000076293945,2467,906.99634,874.7619,1026.2638,808.68134
1758146963.165,1758146963165,2.4679999351501465,2468,832.8571,838.9011,802.6374,812.71063
1758146963.165,1758146963165,2.4679999351501465,2468,701.9048,735.7509,553.22345,802.6374
1758146963.165,1758146963165,2.4679999351501465,2468,754.2857,755.09155,783.69965,801.4286
1758146963.166,1758146963166,2.4689998626708984,2469,889.2674,857.8388,958.97437,805.4579
1758146963.166,1758146963166,2.4689998626708984,2469,870.32965,861.4652,828.4249,803.44324
1758146963.166,1758146963166,2.4689998626708984,2469,736.55676,759.92676,655.16486,799.011
1758146963.204,1758146963204,2.506999969482422,2507,722.8571,734.1392,717.619,798.20514
1758146963.204,1758146963204,2.506999969482422,2507,858.24176,833.2601,938.4249,800.6227
1758146963.205,1758146963205,2.507999897003174,2508,902.1612,884.43225,909.011,801.8315
1758146963.205,1758146963205,2.507999897003174,2508,767.98535,788.5348,683.36993,799.81683
1758146963.205,1758146963205,2.507999897003174,2508,706.7399,720.0366,765.56775,797.3993
1758146963.205,1758146963205,2.507999897003174,2508,821.978,794.9817,942.0513,799.81683
1758146963.206,1758146963206,2.509000062942505,2509,911.8315,877.5824,910.2198,802.23444
1758146963.206,1758146963206,2.509000062942505,2509,799.011,807.47253,676.9231,796.1905
1758146963.206,1758146963206,2.509000062942505,2509,686.5934,716.4103,662.01465,792.96704
1758146963.207,1758146963207,2.509999990463257,2510,773.6264,766.3736,813.5165,796.1905
1758146963.208,1758146963208,2.510999917984009,2511,895.7143,863.8828,921.0989,801.02563
1758146963.209,1758146963209,2.51200008392334,2512,834.87177,836.08057,787.326,803.8461
1758146963.234,1758146963234,2.5369999408721924,2537,706.337,729.707,641.4652,797.3993
1758146963.235,1758146963235,2.5379998683929443,2538,744.61536,734.1392,775.64105,796.99634
1758146963.235,1758146963235,2.5379998683929443,2538,886.4469,840.9158,942.4542,803.44324
1758146963.236,1758146963236,2.5390000343322754,2539,890.87915,866.30035,843.73627,809.89014
1758146963.236,1758146963236,2.5390000343322754,2539,752.674,769.59705,705.5311,807.47253
1758146963.236,1758146963236,2.5390000343322754,2539,721.2454,736.9597,828.8278,803.44324
1758146963.237,1758146963237,2.5399999618530273,2540,842.9304,835.6777,894.90845,810.293
1758146963.237,1758146963237,2.5399999618530273,2540,887.6557,896.52014,784.5055,819.15753
1758146963.237,1758146963237,2.5399999618530273,2540,756.30035,804.65204,691.8315,815.5311
1758146963.238,1758146963238,2.5409998893737793,2541,680.14655,725.2747,693.0403,804.65204
1758146963.238,1758146963238,2.5409998893737793,2541,794.9817,794.57874,853.8095,804.2491
1758146963.238,1758146963238,2.5409998893737793,2541,905.78754,883.6264,927.5458,813.1135
1758146963.304,1758146963304,2.6069998741149902,2607,812.3077,823.5897,742.1978,813.5165
1758146963.305,1758146963305,2.6080000400543213,2608,696.6667,727.28937,677.72894,806.26373
1758146963.305,1758146963305,2.6080000400543213,2608,770.40295,761.13556,846.1539,803.44324
1758146963.305,1758146963305,2.6080000400543213,2608,896.9231,861.06226,894.5055,806.26373
1758146963.306,1758146963306,2.6089999675750732,2609,844.94507,849.3773,829.2308,805.4579
1758146963.306,1758146963306,2.6089999675750732,2609,717.2161,749.85345,762.74725,799.41394
1758146963.306,1758146963306,2.6089999675750732,2609,738.5714,738.1685,748.24176,798.20514
1758146963.307,1758146963307,2.609999895095825,2610,867.9121,831.6484,894.5055,803.0403
1758146963.307,1758146963307,2.609999895095825,2610,883.22345,868.71796,888.46155,806.6667
1758146963.307,1758146963307,2.609999895095825,2610,745.0183,768.3883,644.2857,797.8022
1758146963.308,1758146963308,2.6110000610351562,2611,705.12823,713.5897,734.5421,791.75824
1758146963.308,1758146963308,2.6110000610351562,2611,836.08057,805.05493,933.9927,799.41394
1758146963.333,1758146963333,2.635999917984009,2636,906.1905,882.01465,869.92676,806.6667
1758146963.334,1758146963334,2.63700008392334,2637,786.52014,804.65204,722.4542,806.26373
1758146963.334,1758146963334,2.63700008392334,2637,699.0842,724.0659,714.7985,803.44324
1758146963.334,1758146963334,2.63700008392334,2637,802.6374,790.14655,834.0659,806.6667
1758146963.335,1758146963335,2.638000011444092,2638,914.2491,888.0586,984.35895,810.293
1758146963.335,1758146963335,2.638000011444092,2638,826.4103,846.55676,855.0183,810.696
1758146963.335,1758146963335,2.638000011444092,2638,704.3223,745.0183,682.5641,806.26373
1758146963.336,1758146963336,2.6389999389648438,2639,761.13556,765.16486,767.1795,804.65204
1758146963.336,1758146963336,2.6389999389648438,2639,887.25275,863.47986,850.18317,810.293
1758146963.336,1758146963336,2.6389999389648438,2639,862.674,864.68866,809.4872,814.3223
1758146963.337,1758146963337,2.6399998664855957,2640,732.1245,764.35895,689.81683,807.8755
1758146963.337,1758146963337,2.6399998664855957,2640,730.10986,738.1685,738.97437,803.44324
1758146963.369,1758146963369,2.671999931335449,2672,864.2857,834.87177,940.0366,811.0989
1758146963.37,1758146963370,2.672999858856201,2673,899.7436,881.6117,916.26373,815.12823
1758146963.37,1758146963370,2.672999858856201,2673,763.95605,790.14655,756.30035,806.6667
1758146963.371,1758146963371,2.6740000247955322,2674,701.9048,730.10986,693.44324,800.6227
1758146963.371,1758146963371,2.6740000247955322,2674,817.9487,808.68134,858.24176,803.44324
1758146963.371,1758146963371,2.6740000247955322,2674,905.78754,889.2674,1004.90845,810.696
1758146963.371,1758146963371,2.6740000247955322,2674,791.75824,817.1429,749.45056,809.4872
1758146963.372,1758146963372,2.674999952316284,2675,685.38464,724.87177,645.4945,800.6227
1758146963.372,1758146963372,2.674999952316284,2675,774.0293,775.64105,855.0183,800.2198
1758146963.372,1758146963372,2.674999952316284,2675,893.2967,873.5531,894.10254,803.8461
1758146963.373,1758146963373,2.675999879837036,2676,817.1429,832.8571,759.12085,801.4286
1758146963.373,1758146963373,2.675999879837036,2676,680.54944,728.0952,630.989,796.1905
1758146963.437,1758146963437,2.740000009536743,2740,726.8865,742.6007,805.4579,798.20514
1758146963.438,1758146963438,2.740999937057495,2741,867.1062,849.7802,965.82416,805.05493
1758146963.44,1758146963440,2.743000030517578,2743,857.8388,865.4945,821.1722,810.293
1758146963.44,1758146963440,2.743000030517578,2743,717.2161,756.30035,688.60803,806.6667
1758146963.441,1758146963441,2.74399995803833,2744,713.5897,731.7216,765.9707,797.8022
1758146963.441,1758146963441,2.74399995803833,2744,857.4359,832.8571,969.85345,799.81683
1758146963.441,1758146963441,2.74399995803833,2744,898.93774,876.3736,933.9927,808.2784
1758146963.442,1758146963442,2.744999885559082,2745,771.6117,786.9231,659.59705,803.44324
1758146963.442,1758146963442,2.744999885559082,2745,693.8461,710.3663,612.8571,791.3553
1758146963.442,1758146963442,2.744999885559082,2745,811.0989,787.326,865.4945,793.7729
1758146963.443,1758146963443,2.746000051498413,2746,915.4579,881.2088,932.7839,804.2491
1758146963.443,1758146963443,2.746000051498413,2746,808.68134,817.1429,737.76556,802.6374
1758146963.48,1758146963480,2.7829999923706055,2783,695.05493,717.2161,689.011,794.57874
1758146963.481,1758146963481,2.7839999198913574,2784,772.01465,759.92676,853.00366,791.75824
1758146963.481,1758146963481,2.7839999198913574,2784,897.326,867.9121,944.4689,798.20514
1758146963.481,1758146963481,2.7839999198913574,2784,840.5128,849.7802,749.0476,805.4579
1758146963.482,1758146963482,2.7850000858306885,2785,714.3956,750.65936,690.2198,802.6374
1758146963.482,1758146963482,2.7850000858306885,2785,749.45056,749.45056,880.80585,800.6227
1758146963.482,1758146963482,2.7850000858306885,2785,880.0,848.97437,953.3333,804.2491
1758146963.483,1758146963483,2.7860000133514404,2786,873.5531,865.4945,773.6264,803.8461
1758146963.483,1758146963483,2.7860000133514404,2786,734.5421,764.7619,702.3077,798.60803
1758146963.483,1758146963483,2.7860000133514404,2786,714.7985,735.34796,747.4359,798.20514
1758146963.484,1758146963484,2.7869999408721924,2787,846.9597,828.022,856.2271,804.2491
1758146963.484,1758146963484,2.7869999408721924,2787,899.7436,882.4176,887.25275,806.26373
1758146963.511,1758146963511,2.813999891281128,2814,773.22345,796.1905,720.84247,799.81683
1758146963.512,1758146963512,2.815000057220459,2815,691.02563,723.2601,692.23444,794.9817
1758146963.512,1758146963512,2.815000057220459,2815,796.1905,789.34064,876.77655,797.8022
1758146963.513,1758146963513,2.815999984741211,2816,903.7729,875.9707,898.1319,802.6374
1758146963.515,1758146963515,2.818000078201294,2818,812.71063,825.6044,780.07324,801.8315
1758146963.516,1758146963516,2.819000005722046,2819,699.0842,731.31866,772.01465,800.6227
1758146963.516,1758146963516,2.819000005722046,2819,763.5531,760.32965,799.011,798.60803
1758146963.517,1758146963517,2.819999933242798,2820,885.64105,855.42126,821.1722,799.011
1758146963.517,1758146963517,2.819999933242798,2820,844.5421,844.1392,780.07324,802.23444
1758146963.518,1758146963518,2.82099986076355,2821,714.7985,748.6447,708.3516,802.23444
1758146963.518,1758146963518,2.82099986076355,2821,730.5128,735.7509,799.41394,800.2198
1758146963.519,1758146963519,2.822000026702881,2822,864.68866,830.4396,922.71063,802.23444
1758146963.556,1758146963556,2.8589999675750732,2859,881.6117,867.50916,891.28204,805.4579
1758146963.557,1758146963557,2.859999895095825,2860,741.39197,771.6117,722.0513,798.60803
1758146963.557,1758146963557,2.859999895095825,2860,693.44324,712.381,686.99634,792.96704
1758146963.558,1758146963558,2.8610000610351562,2861,820.7692,798.60803,861.4652,799.81683
1758146963.558,1758146963558,2.8610000610351562,2861,897.326,877.98535,929.5604,807.0696
1758146963.558,1758146963558,2.8610000610351562,2861,772.4176,799.011,816.7399,802.23444
1758146963.558,1758146963558,2.8610000610351562,2861,669.2674,706.7399,690.2198,793.7729
1758146963.559,1758146963559,2.861999988555908,2862,768.7912,765.16486,755.89746,796.5934
1758146963.559,1758146963559,2.861999988555908,2862,889.67035,863.0769,954.5421,801.8315
1758146963.559,1758146963559,2.861999988555908,2862,805.4579,820.3663,745.42126,800.2198
1758146963.56,1758146963560,2.86299991607666,2863,679.7436,718.8278,605.6044,794.9817
1758146963.56,1758146963560,2.86299991607666,2863,739.7802,741.79486,794.9817,793.7729
1758146963.627,1758146963627,2.930000066757202,2930,879.59705,851.39197,949.707,801.8315
1758146963.628,1758146963628,2.930999994277954,2931,855.0183,855.0183,828.022,803.8461
1758146963.629,1758146963629,2.931999921798706,2932,719.6337,755.4945,677.72894,800.2198
1758146963.629,1758146963629,2.931999921798706,2932,720.84247,733.73627,733.3333,800.2198
1758146963.63,1758146963630,2.933000087738037,2933,857.8388,826.8132,963.00366,803.44324
1758146963.63,1758146963630,2.933000087738037,2933,892.49084,875.9707,927.9487,806.26373
1758146963.632,1758146963632,2.934999942779541,2935,753.47986,779.67035,691.8315,799.41394
1758146963.633,1758146963633,2.935999870300293,2936,695.4579,715.2015,654.7619,794.57874
1758146963.633,1758146963633,2.935999870300293,2936,816.7399,800.2198,851.79486,797.8022
1758146963.634,1758146963634,2.937000036239624,2937,909.011,879.19415,929.9634,805.05493
1758146963.634,1758146963634,2.937000036239624,2937,798.20514,802.6374,699.4872,804.65204
1758146963.635,1758146963635,2.937999963760376,2938,693.0403,714.3956,648.315,798.20514
1758146963.674,1758146963674,2.9769999980926514,2977,783.69965,767.1795,859.45056,797.3993
1758146963.675,1758146963675,2.9779999256134033,2978,901.75824,867.50916,943.663,803.44324
1758146963.675,1758146963675,2.9779999256134033,2978,830.0366,836.4835,801.02563,805.8608
1758146963.676,1758146963676,2.9790000915527344,2979,702.3077,734.94507,672.49084,801.02563
1758146963.676,1758146963676,2.9790000915527344,2979,751.06226,749.45056,834.4689,797.8022
1758146963.676,1758146963676,2.9790000915527344,2979,887.6557,854.61536,1003.69965,803.44324
1758146963.677,1758146963677,2.9800000190734863,2980,873.1502,867.1062,819.5604,808.2784
1758146963.677,1758146963677,2.9800000190734863,2980,735.7509,763.1502,684.57874,804.2491
1758146963.677,1758146963677,2.9800000190734863,2980,721.6484,728.49817,788.1319,798.20514
1758146963.677,1758146963677,2.9800000190734863,2980,846.9597,815.5311,815.5311,798.60803
1758146963.678,1758146963678,2.9809999465942383,2981,894.90845,872.74725,815.9341,801.8315
1758146963.678,1758146963678,2.9809999465942383,2981,770.80585,788.5348,715.2015,797.8022
1758146963.708,1758146963708,3.010999917984009,3011,697.47253,716.0073,716.8132,794.17584
1758146963.709,1758146963709,3.01200008392334,3012,814.7253,790.54944,901.75824,796.1905
1758146963.71,1758146963710,3.013000011444092,3013,919.0842,879.19415,952.52747,807.0696
1758146963.71,1758146963710,3.013000011444092,3013,813.1135,817.5458,744.21246,805.4579
1758146963.711,1758146963711,3.0139999389648438,3014,693.44324,718.8278,693.44324,799.011
1758146963.711,1758146963711,3.0139999389648438,3014,775.2381,760.7326,898.5348,802.6374
1758146963.712,1758146963712,3.0149998664855957,3015,900.14655,863.8828,946.4835,805.8608
1758146963.712,1758146963712,3.0149998664855957,3015,840.9158,840.9158,729.707,808.68134
1758146963.715,1758146963715,3.0179998874664307,3018,713.1868,738.5714,655.16486,805.4579
1758146963.715,1758146963715,3.0179998874664307,3018,747.8388,739.3773,802.6374,799.011
1758146963.716,1758146963716,3.0190000534057617,3019,889.2674,845.7509,995.64105,805.05493
1758146963.716,1758146963716,3.0190000534057617,3019,892.0879,877.5824,861.8681,816.337
1758146963.762,1758146963762,3.065000057220459,3065,751.06226,775.2381,646.30035,815.12823
1758146963.762,1758146963762,3.065000057220459,3065,717.2161,726.08057,757.1062,809.0842
1758146963.762,1758146963762,3.065000057220459,3065,846.9597,815.9341,903.36993,809.4872
1758146963.763,1758146963763,3.065999984741211,3066,915.8608,882.8205,908.60803,813.5165
1758146963.763,1758146963763,3.065999984741211,3066,788.93774,803.0403,761.9414,814.3223
1758146963.763,1758146963763,3.065999984741211,3066,705.5311,728.49817,787.326,812.71063
1758146963.764,1758146963764,3.066999912261963,3067,807.8755,792.1612,848.5714,810.696
1758146963.764,1758146963764,3.066999912261963,3067,909.41394,879.59705,865.89746,809.4872
1758146963.764,1758146963764,3.066999912261963,3067,819.15753,830.0366,780.4762,810.293
1758146963.765,1758146963765,3.068000078201294,3068,697.8755,729.304,635.42126,805.05493
1758146963.765,1758146963765,3.068000078201294,3068,767.1795,756.30035,817.5458,803.0403
1758146963.765,1758146963765,3.068000078201294,3068,902.96704,863.0769,938.022,810.696
1758146963.804,1758146963804,3.1069998741149902,3107,863.47986,859.85345,800.6227,815.9341
1758146963.805,1758146963805,3.1080000400543213,3108,725.6777,754.68866,701.50183,807.8755
1758146963.805,1758146963805,3.1080000400543213,3108,733.73627,732.1245,844.94507,798.60803
1758146963.805,1758146963805,3.1080000400543213,3108,864.2857,827.2161,901.75824,800.2198
1758146963.806,1758146963806,3.1089999675750732,3109,884.43225,867.50916,840.10986,805.05493
1758146963.806,1758146963806,3.1089999675750732,3109,751.4652,775.2381,786.1172,804.65204
1758146963.806,1758146963806,3.1089999675750732,3109,703.5165,720.0366,732.52747,799.81683
1758146963.807,1758146963807,3.109999895095825,3110,827.619,802.6374,802.6374,801.8315
1758146963.807,1758146963807,3.109999895095825,3110,900.54944,873.1502,871.9414,805.4579
1758146963.807,1758146963807,3.109999895095825,3110,780.4762,797.3993,768.7912,805.8608
1758146963.809,1758146963809,3.111999988555908,3112,684.17584,715.2015,717.619,802.6374
1758146963.809,1758146963809,3.111999988555908,3112,781.685,774.43225,855.0183,804.65204
1758146963.848,1758146963848,3.1510000228881836,3151,894.10254,868.315,906.1905,810.293
1758146963.849,1758146963849,3.1519999504089355,3152,810.696,828.4249,759.5238,810.293
1758146963.849,1758146963849,3.1519999504089355,3152,690.2198,726.4835,692.23444,804.2491
1758146963.849,1758146963849,3.1519999504089355,3152,743.00366,743.00366,774.83514,801.02563
1758146963.85,1758146963850,3.1529998779296875,3153,879.19415,845.34796,967.8388,806.6667
1758146963.85,1758146963850,3.1529998779296875,3153,857.8388,853.00366,890.4762,807.47253
1758146963.85,1758146963850,3.1529998779296875,3153,722.0513,751.4652,699.89014,803.44324
1758146963.851,1758146963851,3.1540000438690186,3154,718.8278,728.0952,771.6117,803.0403
1758146963.851,1758146963851,3.1540000438690186,3154,850.989,827.2161,868.71796,802.23444
1758146963.852,1758146963852,3.1549999713897705,3155,889.67035,876.3736,815.12823,806.6667
1758146963.852,1758146963852,3.1549999713897705,3155,756.30035,784.90845,674.5055,805.4579
1758146963.852,1758146963852,3.1549999713897705,3155,695.05493,726.4835,724.0659,801.4286
1758146963.888,1758146963888,3.190999984741211,3191,820.7692,813.5165,915.4579,803.8461
1758146963.889,1758146963889,3.191999912261963,3192,914.65204,898.1319,923.1135,809.0842
1758146963.889,1758146963889,3.191999912261963,3192,789.34064,821.978,695.8608,809.0842
1758146963.89,1758146963890,3.193000078201294,3193,666.8498,715.6044,626.9597,800.2198
1758146963.89,1758146963890,3.193000078201294,3193,765.16486,767.98535,877.5824,802.23444
1758146963.89,1758146963890,3.193000078201294,3193,900.54944,878.3883,1022.23444,809.89014
1758146963.891,1758146963891,3.194000005722046,3194,826.4103,840.9158,764.35895,807.47253
1758146963.891,1758146963891,3.194000005722046,3194,685.38464,728.0952,575.78754,800.2198
1758146963.891,1758146963891,3.194000005722046,3194,724.4689,735.7509,772.8205,798.20514
1758146963.892,1758146963892,3.194999933242798,3195,876.3736,852.6007,981.13556,807.8755
1758146963.892,1758146963892,3.194999933242798,3195,869.5238,873.95605,800.6227,811.0989
1758146963.892,1758146963892,3.194999933242798,3195,715.2015,757.50916,608.022,801.02563
1758146963.955,1758146963955,3.257999897003174,3258,697.47253,718.4249,759.5238,795.38464
1758146963.955,1758146963955,3.257999897003174,3258,837.6923,820.3663,923.5165,796.1905
1758146963.956,1758146963956,3.259000062942505,3259,893.69965,883.6264,890.87915,801.02563
1758146963.956,1758146963956,3.259000062942505,3259,755.89746,788.93774,680.9524,799.011
1758146963.956,1758146963956,3.259000062942505,3259,677.72894,711.978,719.2308,794.9817
1758146963.957,1758146963957,3.259999990463257,3260,809.0842,798.20514,979.12085,798.20514
1758146963.957,1758146963957,3.259999990463257,3260,907.8022,887.25275,913.44324,803.44324
1758146963.957,1758146963957,3.259999990463257,3260,792.1612,810.293,675.31134,801.8315
1758146963.958,1758146963958,3.260999917984009,3261,684.17584,712.381,672.8938,797.3993
1758146963.958,1758146963958,3.260999917984009,3261,767.98535,760.32965,817.9487,796.5934
1758146963.958,1758146963958,3.260999917984009,3261,904.17584,871.9414,931.978,801.4286
1758146963.959,1758146963959,3.26200008392334,3262,848.1685,850.18317,742.1978,801.02563
1758146963.979,1758146963979,3.2820000648498535,3282,706.337,738.1685,704.3223,795.78754
1758146963.98,1758146963980,3.2829999923706055,3283,733.3333,735.7509,833.663,795.38464
1758146963.981,1758146963981,3.2839999198913574,3284,876.3736,847.3626,911.02563,803.0403
1758146963.981,1758146963981,3.2839999198913574,3284,886.4469,878.3883,842.52747,809.4872
1758146963.981,1758146963981,3.2839999198913574,3284,740.18317,767.1795,687.8022,805.8608
1758146963.982,1758146963982,3.2850000858306885,3285,703.91943,713.9927,814.7253,799.41394
1758146963.982,1758146963982,3.2850000858306885,3285,846.1539,811.0989,926.337,799.81683
1758146963.983,1758146963983,3.2860000133514404,3286,919.4872,885.2381,830.0366,803.44324
1758146963.983,1758146963983,3.2860000133514404,3286,788.93774,794.9817,687.8022,799.011
1758146963.984,1758146963984,3.2869999408721924,3287,689.41394,708.7546,690.2198,790.54944
1758146963.984,1758146963984,3.2869999408721924,3287,792.5641,791.75824,864.2857,796.5934
1758146963.984,1758146963984,3.2869999408721924,3287,901.75824,898.5348,924.3223,806.6667
1758146964.063,1758146964063,3.365999937057495,3366,795.78754,844.5421,747.4359,803.0403
1758146964.064,1758146964064,3.366999864578247,3367,661.2088,734.94507,664.43225,799.41394
1758146964.065,1758146964065,3.368000030517578,3368,739.3773,768.3883,838.0952,801.02563
1758146964.065,1758146964065,3.368000030517578,3368,892.0879,883.6264,996.8498,807.0696
1758146964.066,1758146964066,3.36899995803833,3369,847.3626,867.9121,859.45056,809.4872
1758146964.066,1758146964066,3.36899995803833,3369,699.89014,749.85345,676.9231,802.23444
1758146964.067,1758146964067,3.369999885559082,3370,707.5458,730.5128,736.55676,796.99634
1758146964.067,1758146964067,3.369999885559082,3370,853.8095,838.0952,863.0769,802.6374
1758146964.067,1758146964067,3.369999885559082,3370,889.2674,888.0586,880.0,810.293
1758146964.068,1758146964068,3.371000051498413,3371,741.39197,782.0879,644.2857,801.8315
1758146964.068,1758146964068,3.371000051498413,3371,681.75824,715.6044,693.0403,792.5641
1758146964.068,1758146964068,3.371000051498413,3371,812.71063,806.26373,895.7143,794.57874
1758146964.104,1758146964104,3.4070000648498535,3407,906.99634,892.49084,933.9927,806.26373
1758146964.105,1758146964105,3.4079999923706055,3408,788.5348,811.9048,744.21246,809.89014
1758146964.105,1758146964105,3.4079999923706055,3408,676.9231,714.3956,672.8938,803.0403
1758146964.106,1758146964106,3.4089999198913574,3409,778.0586,778.0586,863.0769,803.44324
1758146964.106,1758146964106,3.4089999198913574,3409,904.9817,885.2381,968.6447,809.0842
1758146964.106,1758146964106,3.4089999198913574,3409,823.5897,841.31866,819.9634,809.0842
1758146964.107,1758146964107,3.4100000858306885,3410,689.41394,730.9158,650.32965,800.6227
1758146964.107,1758146964107,3.4100000858306885,3410,749.0476,752.674,802.6374,799.41394
1758146964.107,1758146964107,3.4100000858306885,3410,887.6557,865.09155,913.0403,806.6667
1758146964.108,1758146964108,3.4110000133514404,3411,858.6447,864.68866,743.8095,807.47253
1758146964.108,1758146964108,3.4110000133514404,3411,717.2161,749.85345,670.07324,803.0403
1758146964.108,1758146964108,3.4110000133514404,3411,708.3516,718.8278,765.9707,799.41394
1758146964.149,1758146964149,3.4519999027252197,3452,849.7802,824.7985,917.0696,801.8315
1758146964.15,1758146964150,3.453000068664551,3453,898.5348,885.64105,893.2967,807.0696
1758146964.151,1758146964151,3.4539999961853027,3454,759.5238,787.326,692.6374,804.65204
1758146964.151,1758146964151,3.4539999961853027,3454,682.5641,712.7839,657.98535,798.20514
1758146964.153,1758146964153,3.4560000896453857,3456,805.4579,801.8315,935.2015,800.6227
1758146964.153,1758146964153,3.4560000896453857,3456,909.011,894.90845,1031.9048,806.6667
1758146964.153,1758146964153,3.4560000896453857,3456,787.72894,819.15753,743.8095,804.65204
1758146964.154,1758146964154,3.4570000171661377,3457,666.04395,719.6337,657.1795,797.3993
1758146964.154,1758146964154,3.4570000171661377,3457,761.53845,770.80585,863.8828,795.38464
1758146964.154,1758146964154,3.4570000171661377,3457,895.7143,877.5824,874.7619,798.20514
1758146964.155,1758146964155,3.4579999446868896,3458,830.4396,850.58606,775.64105,803.8461
1758146964.155,1758146964155,3.4579999446868896,3458,692.6374,737.76556,706.7399,800.6227
1758146964.189,1758146964189,3.491999864578247,3492,728.49817,735.7509,767.5824,794.57874
1758146964.19,1758146964190,3.493000030517578,3493,876.3736,845.34796,954.5421,801.02563
1758146964.19,1758146964190,3.493000030517578,3493,873.5531,866.30035,863.0769,802.23444
1758146964.19,1758146964190,3.493000030517578,3493,724.0659,755.89746,624.5421,793.7729
1758146964.191,1758146964191,3.49399995803833,3494,697.47253,714.7985,762.74725,791.3553
1758146964.191,1758146964191,3.49399995803833,3494,840.10986,819.9634,999.2674,798.20514
1758146964.191,1758146964191,3.49399995803833,3494,900.9524,883.22345,898.93774,802.6374
1758146964.192,1758146964192,3.494999885559082,3495,759.92676,782.8938,631.39197,796.99634
1758146964.192,1758146964192,3.494999885559082,3495,674.90845,700.696,658.3883,791.75824
1758146964.192,1758146964192,3.494999885559082,3495,796.5934,780.4762,905.78754,797.3993
1758146964.193,1758146964193,3.496000051498413,3496,908.60803,879.59705,901.3553,802.6374
1758146964.193,1758146964193,3.496000051498413,3496,801.02563,813.1135,689.41394,800.2198
1758146964.234,1758146964234,3.5369999408721924,3537,678.93774,711.1722,688.60803,796.5934
1758146964.234,1758146964234,3.5369999408721924,3537,761.53845,755.4945,865.4945,796.99634
1758146964.235,1758146964235,3.5379998683929443,3538,900.9524,862.674,966.2271,800.6227
1758146964.235,1758146964235,3.5379998683929443,3538,846.9597,843.3333,722.8571,800.2198
1758146964.236,1758146964236,3.5390000343322754,3539,704.3223,731.7216,608.4249,794.17584
1758146964.236,1758146964236,3.5390000343322754,3539,730.10986,725.6777,857.4359,789.34064
1758146964.237,1758146964237,3.5399999618530273,3540,879.59705,840.5128,992.01465,794.17584
1758146964.238,1758146964238,3.5409998893737793,3541,896.9231,876.3736,859.0476,800.6227
1758146964.238,1758146964238,3.5409998893737793,3541,749.85345,771.6117,673.2967,797.3993
1758146964.238,1758146964238,3.5409998893737793,3541,705.9341,720.0366,669.2674,794.17584
1758146964.239,1758146964239,3.5420000553131104,3542,847.3626,816.7399,912.23444,799.011
1758146964.239,1758146964239,3.5420000553131104,3542,923.91943,894.10254,892.0879,803.0403
1758146964.266,1758146964266,3.569000005722046,3569,784.5055,799.41394,690.2198,801.02563
1758146964.266,1758146964266,3.569000005722046,3569,689.81683,709.9634,708.7546,797.3993
1758146964.267,1758146964267,3.569999933242798,3570,801.4286,777.6557,882.8205,795.38464
1758146964.268,1758146964268,3.57099986076355,3571,919.0842,879.59705,932.381,802.6374
1758146964.268,1758146964268,3.57099986076355,3571,824.3956,834.0659,772.8205,807.47253
1758146964.268,1758146964268,3.57099986076355,3571,692.23444,724.0659,733.3333,800.6227
1758146964.269,1758146964269,3.572000026702881,3572,758.315,749.85345,872.74725,798.20514
1758146964.269,1758146964269,3.572000026702881,3572,901.75824,866.7033,924.7253,805.4579
1758146964.27,1758146964270,3.572999954223633,3573,865.09155,865.09155,724.0659,810.696
1758146964.27,1758146964270,3.572999954223633,3573,718.4249,749.0476,650.32965,805.05493
1758146964.271,1758146964271,3.5739998817443848,3574,723.2601,726.8865,749.85345,799.81683
1758146964.271,1758146964271,3.5739998817443848,3574,860.2564,831.6484,886.4469,802.6374
1758146964.336,1758146964336,3.6389999389648438,3639,888.86444,880.80585,893.69965,808.2784
1758146964.337,1758146964337,3.6399998664855957,3640,741.79486,778.46155,699.4872,804.65204
1758146964.338,1758146964338,3.6410000324249268,3641,678.93774,711.978,698.2784,801.02563
1758146964.338,1758146964338,3.6410000324249268,3641,809.4872,802.6374,871.9414,803.8461
1758146964.338,1758146964338,3.6410000324249268,3641,898.93774,885.64105,942.0513,808.2784
1758146964.338,1758146964338,3.6410000324249268,3641,775.2381,807.0696,788.5348,807.0696
1758146964.339,1758146964339,3.6419999599456787,3642,665.64105,711.1722,642.27106,799.81683
1758146964.339,1758146964339,3.6419999599456787,3642,767.1795,772.4176,799.011,801.8315
1758146964.341,1758146964341,3.6440000534057617,3644,898.5348,884.43225,1002.49084,811.9048
1758146964.341,1758146964341,3.6440000534057617,3644,814.7253,845.7509,764.7619,813.91943
1758146964.342,1758146964342,3.6449999809265137,3645,675.7143,734.5421,565.31134,804.65204
1758146964.342,1758146964342,3.6449999809265137,3645,731.31866,746.2271,774.83514,801.4286
1758146964.364,1758146964364,3.6670000553131104,3667,880.80585,859.0476,983.95605,808.68134
1758146964.364,1758146964364,3.6670000553131104,3667,866.7033,873.95605,836.4835,810.696
1758146964.365,1758146964365,3.6679999828338623,3668,717.619,758.315,649.92676,803.8461
1758146964.365,1758146964365,3.6679999828338623,3668,707.9487,727.28937,767.5824,800.6227
1758146964.365,1758146964365,3.6679999828338623,3668,858.6447,831.2454,948.9011,806.6667
1758146964.366,1758146964366,3.6689999103546143,3669,911.4286,889.2674,953.3333,815.12823
1758146964.366,1758146964366,3.6689999103546143,3669,770.40295,789.34064,703.1135,809.0842
1758146964.367,1758146964367,3.6700000762939453,3670,691.4286,707.9487,628.5714,798.60803
1758146964.367,1758146964367,3.6700000762939453,3670,821.1722,792.96704,872.74725,801.4286
1758146964.367,1758146964367,3.6700000762939453,3670,927.1429,888.46155,942.8571,809.0842
1758146964.368,1758146964368,3.6710000038146973,3671,807.0696,814.7253,747.4359,804.65204
1758146964.368,1758146964368,3.6710000038146973,3671,687.8022,715.6044,647.9121,799.41394
1758146964.435,1758146964435,3.73799991607666,3738,780.87915,768.7912,882.4176,805.05493
1758146964.436,1758146964436,3.739000082015991,3739,912.6374,874.35895,962.1978,809.0842
1758146964.436,1758146964436,3.739000082015991,3739,840.5128,843.3333,720.84247,807.47253
1758146964.437,1758146964437,3.740000009536743,3740,699.89014,732.9304,642.674,802.6374
1758146964.437,1758146964437,3.740000009536743,3740,733.73627,742.1978,840.5128,799.011
1758146964.437,1758146964437,3.740000009536743,3740,881.2088,855.82416,1017.3993,805.05493
1758146964.438,1758146964438,3.740999937057495,3741,881.2088,882.01465,857.4359,812.71063
1758146964.438,1758146964438,3.740999937057495,3741,729.304,770.80585,626.9597,806.6667
1758146964.438,1758146964438,3.740999937057495,3741,701.50183,722.4542,736.9597,803.0403
1758146964.439,1758146964439,3.741999864578247,3742,840.5128,825.2015,892.8938,809.89014
1758146964.44,1758146964440,3.743000030517578,3743,905.78754,894.90845,847.76556,813.1135
1758146964.441,1758146964441,3.74399995803833,3744,774.0293,802.23444,712.381,806.26373
1758146964.476,1758146964476,3.7790000438690186,3779,686.5934,718.8278,715.2015,798.60803
1758146964.477,1758146964477,3.7799999713897705,3780,811.50183,796.99634,871.53845,805.05493
1758146964.477,1758146964477,3.7799999713897705,3780,930.7692,902.1612,928.3516,813.5165
1758146964.477,1758146964477,3.7799999713897705,3780,821.1722,837.6923,704.3223,807.0696
1758146964.478,1758146964478,3.7809998989105225,3781,694.2491,733.3333,707.9487,801.02563
1758146964.478,1758146964478,3.7809998989105225,3781,774.43225,774.83514,894.90845,804.65204
1758146964.478,1758146964478,3.7809998989105225,3781,912.23444,880.80585,932.7839,809.89014
1758146964.479,1758146964479,3.7820000648498535,3782,865.09155,863.8828,731.31866,811.50183
1758146964.479,1758146964479,3.7820000648498535,3782,716.8132,747.03296,609.2308,801.8315
1758146964.479,1758146964479,3.7820000648498535,3782,731.31866,736.1539,784.5055,797.8022
1758146964.48,1758146964480,3.7829999923706055,3783,878.7912,847.3626,948.0952,807.8755
1758146964.48,1758146964480,3.7829999923706055,3783,898.1319,886.04395,865.89746,812.71063
1758146964.506,1758146964506,3.809000015258789,3809,749.45056,776.04395,705.12823,804.65204
1758146964.506,1758146964506,3.809000015258789,3809,696.26373,713.9927,744.61536,796.99634
1758146964.507,1758146964507,3.809999942779541,3810,830.84247,808.68134,895.31134,800.2198
1758146964.507,1758146964507,3.809999942779541,3810,912.6374,890.07324,875.16486,805.8608
1758146964.507,1758146964507,3.809999942779541,3810,782.0879,805.05493,737.76556,804.2491
1758146964.508,1758146964508,3.810999870300293,3811,681.75824,714.3956,757.9121,799.81683
1758146964.508,1758146964508,3.810999870300293,3811,786.1172,779.67035,868.71796,799.011
1758146964.508,1758146964508,3.810999870300293,3811,909.81683,880.80585,904.57874,804.2491
1758146964.509,1758146964509,3.812000036239624,3812,817.5458,831.2454,727.28937,805.05493
1758146964.509,1758146964509,3.812000036239624,3812,677.72894,719.2308,608.022,798.60803
1758146964.509,1758146964509,3.812000036239624,3812,745.82416,742.6007,793.36993,796.5934
1758146964.51,1758146964510,3.812999963760376,3813,891.28204,858.24176,917.0696,801.8315
1758146964.54,1758146964540,3.8429999351501465,3843,861.8681,865.89746,819.15753,807.47253
1758146964.541,1758146964541,3.8439998626708984,3844,719.6337,755.09155,705.5311,801.4286
1758146964.541,1758146964541,3.8439998626708984,3844,719.6337,729.707,772.01465,796.99634
1758146964.541,1758146964541,3.8439998626708984,3844,865.89746,837.6923,906.99634,804.65204
1758146964.542,1758146964542,3.8450000286102295,3845,907.8022,886.4469,891.685,809.4872
1758146964.542,1758146964542,3.8450000286102295,3845,762.74725,779.67035,757.1062,804.65204
1758146964.543,1758146964543,3.8459999561309814,3846,695.05493,707.5458,729.707,796.99634
1758146964.543,1758146964543,3.8459999561309814,3846,824.3956,800.6227,848.5714,799.81683
1758146964.543,1758146964543,3.8459999561309814,3846,917.47253,888.0586,869.12085,804.2491
1758146964.544,1758146964544,3.8469998836517334,3847,797.8022,811.50183,728.0952,804.2491
1758146964.544,1758146964544,3.8469998836517334,3847,691.4286,717.2161,682.1612,801.8315
1758146964.544,1758146964544,3.8469998836517334,3847,790.54944,776.4469,852.6007,803.0403
1758146964.608,1758146964608,3.9110000133514404,3911,916.6667,881.2088,930.7692,809.89014
1758146964.609,1758146964609,3.9119999408721924,3912,833.2601,836.8865,768.3883,808.2784
1758146964.609,1758146964609,3.9119999408721924,3912,691.8315,721.6484,653.95605,802.23444
1758146964.609,1758146964609,3.9119999408721924,3912,741.79486,737.76556,789.7436,803.0403
1758146964.61,1758146964610,3.9129998683929443,3913,891.685,850.989,957.3626,808.2784
1758146964.61,1758146964610,3.9129998683929443,3913,882.8205,865.89746,910.2198,809.89014
1758146964.61,1758146964610,3.9129998683929443,3913,736.1539,759.5238,697.0696,802.23444
1758146964.611,1758146964611,3.9140000343322754,3914,711.5751,717.619,689.011,791.75824
1758146964.611,1758146964611,3.9140000343322754,3914,853.8095,821.978,919.0842,799.011
1758146964.611,1758146964611,3.9140000343322754,3914,908.20514,889.67035,867.9121,807.0696
1758146964.612,1758146964612,3.9149999618530273,3915,769.19415,789.34064,698.2784,801.02563
1758146964.612,1758146964612,3.9149999618530273,3915,692.23444,703.5165,676.52014,794.57874
1758146964.642,1758146964642,3.944999933242798,3945,813.91943,784.10254,881.6117,799.011
1758146964.642,1758146964642,3.944999933242798,3945,922.3077,883.22345,945.6777,805.8608
1758146964.644,1758146964644,3.947000026702881,3947,809.89014,816.7399,769.19415,803.0403
1758146964.644,1758146964644,3.947000026702881,3947,687.3993,714.7985,694.2491,796.99634
1758146964.645,1758146964645,3.947999954223633,3948,770.40295,759.5238,812.3077,797.3993
1758146964.645,1758146964645,3.947999954223633,3948,910.6227,876.77655,1002.8938,803.44324
1758146964.645,1758146964645,3.947999954223633,3948,850.18317,858.24176,821.978,804.65204
1758146964.646,1758146964646,3.9489998817443848,3949,697.0696,735.7509,562.8938,799.41394
1758146964.646,1758146964646,3.9489998817443848,3949,726.08057,728.9011,762.74725,799.011
1758146964.646,1758146964646,3.9489998817443848,3949,877.5824,843.73627,949.707,802.23444
1758146964.647,1758146964647,3.950000047683716,3950,885.64105,872.3443,855.0183,805.4579
1758146964.647,1758146964647,3.950000047683716,3950,739.3773,761.13556,671.28204,801.4286
1758146964.707,1758146964707,4.009999990463257,4010,703.5165,713.5897,730.10986,796.5934
1758146964.708,1758146964708,4.010999917984009,4011,844.5421,816.337,904.17584,804.2491
1758146964.708,1758146964708,4.010999917984009,4011,917.0696,893.2967,880.80585,811.50183
1758146964.709,1758146964709,4.01200008392334,4012,778.46155,797.8022,722.4542,804.2491
1758146964.709,1758146964709,4.01200008392334,4012,685.78754,707.9487,731.31866,799.81683
1758146964.709,1758146964709,4.01200008392334,4012,802.6374,786.1172,926.337,803.0403
1758146964.71,1758146964710,4.013000011444092,4013,917.0696,888.86444,946.4835,807.0696
1758146964.71,1758146964710,4.013000011444092,4013,812.3077,826.0073,719.2308,805.8608
1758146964.71,1758146964710,4.013000011444092,4013,679.7436,715.6044,649.92676,795.78754
1758146964.711,1758146964711,4.013999938964844,4014,750.65936,748.24176,777.25275,793.36993
1758146964.711,1758146964711,4.013999938964844,4014,889.67035,861.06226,893.2967,800.2198
1758146964.711,1758146964711,4.013999938964844,4014,845.34796,854.21246,786.1172,802.6374
1758146964.744,1758146964744,4.046999931335449,4047,700.293,745.0183,674.10254,798.20514
1758146964.744,1758146964744,4.046999931335449,4047,715.6044,734.5421,783.69965,797.3993
1758146964.745,1758146964745,4.047999858856201,4048,866.30035,845.34796,935.6044,803.44324
1758146964.745,1758146964745,4.047999858856201,4048,889.67035,886.8498,835.2747,806.6667
1758146964.747,1758146964747,4.049999952316284,4050,741.79486,780.07324,708.3516,803.8461
1758146964.747,1758146964747,4.049999952316284,4050,691.4286,722.0513,797.3993,798.60803
1758146964.747,1758146964747,4.049999952316284,4050,830.0366,818.7546,903.36993,801.8315
1758146964.748,1758146964748,4.050999879837036,4051,911.02563,893.2967,831.6484,805.05493
1758146964.748,1758146964748,4.050999879837036,4051,778.46155,800.2198,686.99634,801.02563
1758146964.748,1758146964748,4.050999879837036,4051,674.10254,709.9634,698.2784,794.9817
1758146964.749,1758146964749,4.052000045776367,4052,779.2674,774.43225,830.0366,794.9817
1758146964.749,1758146964749,4.052000045776367,4052,911.02563,877.5824,940.84247,803.0403
1758146964.786,1758146964786,4.08899998664856,4089,823.1868,829.6337,746.63007,803.0403
1758146964.786,1758146964786,4.08899998664856,4089,686.1905,717.2161,649.92676,797.3993
1758146964.787,1758146964787,4.0899999141693115,4090,751.4652,737.3626,842.1245,800.2198
1758146964.787,1758146964787,4.0899999141693115,4090,897.72894,850.989,917.0696,808.68134
1758146964.787,1758146964787,4.0899999141693115,4090,879.19415,861.4652,842.9304,812.71063
1758146964.788,1758146964788,4.091000080108643,4091,724.4689,755.09155,754.68866,805.8608
1758146964.788,1758146964788,4.091000080108643,4091,703.91943,732.52747,738.1685,802.23444
1758146964.788,1758146964788,4.091000080108643,4091,840.5128,840.9158,872.3443,807.8755
1758146964.789,1758146964789,4.0920000076293945,4092,883.6264,899.7436,911.4286,813.5165
1758146964.789,1758146964789,4.0920000076293945,4092,740.18317,796.99634,645.89746,810.293
1758146964.789,1758146964789,4.0920000076293945,4092,670.87915,718.022,641.4652,803.0403
1758146964.79,1758146964790,4.0929999351501465,4093,811.0989,803.44324,903.7729,806.26373
1758146964.834,1758146964834,4.13700008392334,4137,921.50183,896.9231,991.2088,813.91943
1758146964.835,1758146964835,4.138000011444092,4138,802.6374,813.1135,753.47986,806.6667
1758146964.835,1758146964835,4.138000011444092,4138,690.2198,713.9927,660.0,800.6227
1758146964.835,1758146964835,4.138000011444092,4138,788.5348,774.0293,842.9304,804.2491
1758146964.836,1758146964836,4.138999938964844,4139,915.05493,877.5824,973.47986,806.26373
1758146964.836,1758146964836,4.138999938964844,4139,838.9011,842.52747,848.1685,805.8608
1758146964.838,1758146964838,4.141000032424927,4141,705.12823,734.94507,686.1905,801.02563
1758146964.838,1758146964838,4.141000032424927,4141,748.24176,742.6007,757.1062,799.011
1758146964.838,1758146964838,4.141000032424927,4141,888.46155,852.6007,899.7436,802.23444
1758146964.839,1758146964839,4.141999959945679,4142,880.0,870.32965,837.6923,801.4286
1758146964.839,1758146964839,4.141999959945679,4142,734.5421,755.89746,690.6227,795.38464
1758146964.839,1758146964839,4.141999959945679,4142,711.1722,716.0073,742.1978,793.7729
1758146964.876,1758146964876,4.178999900817871,4179,850.58606,822.381,917.0696,801.8315
1758146964.877,1758146964877,4.180000066757202,4180,911.4286,886.8498,904.9817,808.2784
1758146964.877,1758146964877,4.180000066757202,4180,774.43225,786.1172,707.9487,805.4579
1758146964.877,1758146964877,4.180000066757202,4180,692.6374,712.381,686.5934,804.65204
1758146964.878,1758146964878,4.180999994277954,4181,813.91943,801.02563,925.5311,808.2784
1758146964.878,1758146964878,4.180999994277954,4181,926.7399,900.54944,970.65936,812.71063
1758146964.878,1758146964878,4.180999994277954,4181,814.7253,823.1868,693.8461,808.68134
1758146964.879,1758146964879,4.181999921798706,4182,681.3553,713.9927,661.6117,800.6227
1758146964.879,1758146964879,4.181999921798706,4182,764.35895,763.5531,857.03296,802.6374
1758146964.879,1758146964879,4.181999921798706,4182,905.38464,871.13556,897.72894,810.293
1758146964.88,1758146964880,4.183000087738037,4183,854.21246,851.39197,774.83514,813.91943
1758146964.88,1758146964880,4.183000087738037,4183,714.7985,742.6007,626.1539,806.6667
1758146964.928,1758146964928,4.230999946594238,4231,741.79486,737.76556,793.7729,806.26373
1758146964.928,1758146964928,4.230999946594238,4231,885.64105,848.5714,967.4359,814.7253
1758146964.929,1758146964929,4.23199987411499,4232,898.1319,880.40295,886.04395,818.3516
1758146964.929,1758146964929,4.23199987411499,4232,761.53845,778.0586,689.41394,811.9048
1758146964.929,1758146964929,4.23199987411499,4232,715.6044,728.49817,730.5128,805.05493
1758146964.93,1758146964930,4.233000040054321,4233,845.7509,819.9634,968.24176,808.68134
1758146964.93,1758146964930,4.233000040054321,4233,924.7253,892.8938,939.2308,814.7253
1758146964.93,1758146964930,4.233000040054321,4233,797.8022,809.89014,662.8205,813.1135
1758146964.932,1758146964932,4.234999895095825,4235,697.0696,723.2601,608.8278,805.8608
1758146964.932,1758146964932,4.234999895095825,4235,799.011,788.1319,883.22345,804.65204
1758146964.933,1758146964933,4.236000061035156,4236,915.4579,888.0586,963.4066,811.9048
1758146964.933,1758146964933,4.236000061035156,4236,825.6044,837.6923,738.5714,808.2784
1758146964.964,1758146964964,4.266999959945679,4267,701.0989,732.1245,675.31134,800.6227
1758146964.965,1758146964965,4.267999887466431,4268,755.89746,752.674,821.1722,797.8022
1758146964.965,1758146964965,4.267999887466431,4268,879.19415,854.21246,933.1868,801.4286
1758146964.965,1758146964965,4.267999887466431,4268,851.79486,859.85345,828.8278,807.0696
1758146964.966,1758146964966,4.269000053405762,4269,720.84247,758.71796,676.52014,805.8608
1758146964.966,1758146964966,4.269000053405762,4269,727.6923,733.73627,796.5934,802.6374
1758146964.966,1758146964966,4.269000053405762,4269,864.2857,831.6484,943.663,805.05493
1758146964.967,1758146964967,4.269999980926514,4270,894.10254,876.77655,847.76556,807.8755
1758146964.967,1758146964967,4.269999980926514,4270,765.56775,783.2967,723.2601,799.011
1758146964.968,1758146964968,4.270999908447266,4271,707.1429,716.0073,672.0879,793.7729
1758146964.968,1758146964968,4.270999908447266,4271,816.7399,786.9231,882.8205,801.02563
1758146964.968,1758146964968,4.270999908447266,4271,900.54944,867.1062,945.2747,805.4579
1758146965.034,1758146965034,4.336999893188477,4337,797.8022,807.47253,720.0366,804.65204
1758146965.035,1758146965035,4.338000059127808,4338,703.1135,727.28937,739.7802,802.23444
1758146965.035,1758146965035,4.338000059127808,4338,783.2967,771.6117,871.13556,797.8022
1758146965.035,1758146965035,4.338000059127808,4338,891.685,863.47986,888.46155,801.02563
1758146965.036,1758146965036,4.33899998664856,4339,828.022,836.08057,799.81683,802.23444
1758146965.036,1758146965036,4.33899998664856,4339,709.5604,743.00366,780.87915,799.011
1758146965.036,1758146965036,4.33899998664856,4339,744.61536,750.65936,810.293,799.41394
1758146965.037,1758146965037,4.3399999141693115,4340,861.06226,841.31866,810.293,799.41394
1758146965.037,1758146965037,4.3399999141693115,4340,853.8095,857.03296,820.7692,802.6374
1758146965.037,1758146965037,4.3399999141693115,4340,728.0952,766.77655,724.87177,803.44324
1758146965.039,1758146965039,4.3420000076293945,4342,708.3516,735.34796,713.9927,800.6227
1758146965.04,1758146965040,4.3429999351501465,4343,836.4835,822.7839,885.2381,804.65204
1758146965.077,1758146965077,4.379999876022339,4380,887.6557,876.3736,905.38464,808.2784
1758146965.077,1758146965077,4.379999876022339,4380,771.6117,801.02563,734.94507,804.2491
1758146965.078,1758146965078,4.38100004196167,4381,706.7399,736.9597,713.1868,803.8461
1758146965.078,1758146965078,4.38100004196167,4381,798.20514,792.1612,826.0073,803.44324
1758146965.078,1758146965078,4.38100004196167,4381,886.4469,870.7326,915.4579,805.4579
1758146965.079,1758146965079,4.381999969482422,4382,805.05493,823.9927,843.3333,809.0842
1758146965.079,1758146965079,4.381999969482422,4382,702.3077,736.55676,671.28204,803.0403
1758146965.079,1758146965079,4.381999969482422,4382,764.35895,761.53845,728.9011,796.99634
1758146965.08,1758146965080,4.382999897003174,4383,879.59705,853.4066,962.1978,805.4579
1758146965.08,1758146965080,4.382999897003174,4383,837.6923,849.3773,796.5934,809.0842
1758146965.08,1758146965080,4.382999897003174,4383,719.6337,758.71796,680.54944,800.6227
1758146965.081,1758146965081,4.384000062942505,4384,737.76556,747.8388,770.80585,799.011
1758146965.105,1758146965105,4.4079999923706055,4408,857.8388,834.0659,893.2967,804.2491
1758146965.106,1758146965106,4.408999919891357,4409,869.5238,867.9121,849.3773,809.89014
1758146965.106,1758146965106,4.408999919891357,4409,749.45056,782.8938,706.337,808.68134
1758146965.107,1758146965107,4.4100000858306885,4410,707.1429,734.94507,712.381,802.23444
1758146965.107,1758146965107,4.4100000858306885,4410,811.9048,809.0842,906.99634,802.6374
1758146965.108,1758146965108,4.41100001335144,4411,884.43225,875.16486,967.8388,809.0842
1758146965.108,1758146965108,4.41100001335144,4411,789.34064,806.6667,770.80585,809.0842
1758146965.108,1758146965108,4.41100001335144,4411,708.7546,727.28937,636.63007,800.6227
1758146965.109,1758146965109,4.411999940872192,4412,795.78754,777.25275,761.53845,799.81683
1758146965.109,1758146965109,4.411999940872192,4412,893.69965,859.45056,913.44324,805.4579
1758146965.109,1758146965109,4.411999940872192,4412,822.7839,826.4103,805.4579,806.6667
1758146965.11,1758146965110,4.412999868392944,4413,720.0366,744.21246,686.5934,803.0403
1758146965.17,1758146965170,4.4730000495910645,4473,762.74725,756.7033,796.5934,801.02563
1758146965.171,1758146965171,4.473999977111816,4474,870.7326,840.5128,912.6374,803.44324
1758146965.171,1758146965171,4.473999977111816,4474,849.7802,845.34796,837.6923,807.8755
1758146965.172,1758146965172,4.474999904632568,4475,733.3333,759.92676,683.36993,807.8755
1758146965.172,1758146965172,4.474999904632568,4475,732.9304,742.6007,764.35895,804.65204
1758146965.173,1758146965173,4.476000070571899,4476,850.58606,827.2161,942.8571,805.8608
1758146965.173,1758146965173,4.476000070571899,4476,873.5531,861.4652,853.4066,809.0842
1758146965.173,1758146965173,4.476000070571899,4476,758.315,782.8938,712.7839,805.4579
1758146965.174,1758146965174,4.476999998092651,4477,714.7985,732.52747,735.7509,797.8022
1758146965.174,1758146965174,4.476999998092651,4477,815.9341,796.5934,785.31134,797.3993
1758146965.174,1758146965174,4.476999998092651,4477,893.2967,867.50916,842.52747,800.2198
1758146965.175,1758146965175,4.477999925613403,4478,811.50183,816.7399,775.64105,803.44324
1758146965.21,1758146965210,4.513000011444092,4513,729.304,746.2271,709.9634,802.6374
1758146965.21,1758146965210,4.513000011444092,4513,798.60803,785.7143,826.4103,801.8315
1758146965.211,1758146965211,4.513999938964844,4514,893.69965,863.47986,917.47253,805.4579
1758146965.211,1758146965211,4.513999938964844,4514,830.84247,834.0659,770.80585,806.6667
1758146965.211,1758146965211,4.513999938964844,4514,718.4249,746.63007,716.4103,800.2198
1758146965.212,1758146965212,4.514999866485596,4515,755.4945,758.71796,875.56775,799.41394
1758146965.212,1758146965212,4.514999866485596,4515,869.5238,845.7509,908.20514,801.8315
1758146965.212,1758146965212,4.514999866485596,4515,855.42126,855.0183,796.99634,804.2491
1758146965.213,1758146965213,4.516000032424927,4516,738.5714,766.3736,695.4579,802.23444
1758146965.213,1758146965213,4.516000032424927,4516,724.87177,734.1392,718.022,795.38464
1758146965.213,1758146965213,4.516000032424927,4516,836.8865,815.12823,872.74725,796.5934
1758146965.214,1758146965214,4.516999959945679,4517,880.40295,864.68866,884.43225,803.0403
1758146965.251,1758146965251,4.553999900817871,4554,772.4176,789.7436,785.31134,802.6374
1758146965.252,1758146965252,4.555000066757202,4555,707.9487,727.28937,739.3773,799.81683
1758146965.253,1758146965253,4.555999994277954,4556,801.4286,786.52014,828.4249,803.8461
1758146965.254,1758146965254,4.556999921798706,4557,884.43225,864.68866,924.7253,807.0696
1758146965.254,1758146965254,4.556999921798706,4557,798.60803,815.9341,792.96704,807.47253
1758146965.254,1758146965254,4.556999921798706,4557,705.12823,736.1539,755.89746,804.65204
1758146965.255,1758146965255,4.558000087738037,4558,775.64105,771.6117,824.3956,801.8315
1758146965.255,1758146965255,4.558000087738037,4558,887.6557,855.42126,886.04395,806.26373
1758146965.255,1758146965255,4.558000087738037,4558,832.8571,830.4396,803.8461,804.2491
1758146965.256,1758146965256,4.559000015258789,4559,715.6044,742.6007,649.5238,800.6227
1758146965.256,1758146965256,4.559000015258789,4559,747.03296,745.0183,755.89746,800.2198
1758146965.256,1758146965256,4.559000015258789,4559,869.92676,836.08057,888.0586,804.65204
1758146965.324,1758146965324,4.626999855041504,4627,869.12085,859.45056,857.4359,809.89014
1758146965.325,1758146965325,4.628000020980835,4628,745.82416,767.98535,726.8865,805.05493
1758146965.325,1758146965325,4.628000020980835,4628,722.0513,729.707,704.3223,798.60803
1758146965.326,1758146965326,4.628999948501587,4629,842.9304,815.12823,911.02563,803.0403
1758146965.326,1758146965326,4.628999948501587,4629,896.52014,876.3736,967.4359,813.5165
1758146965.327,1758146965327,4.629999876022339,4630,778.86444,797.8022,745.82416,808.2784
1758146965.327,1758146965327,4.629999876022339,4630,703.1135,726.4835,693.44324,801.8315
1758146965.327,1758146965327,4.629999876022339,4630,802.23444,790.54944,798.20514,801.8315
1758146965.328,1758146965328,4.63100004196167,4631,895.31134,875.16486,885.64105,807.8755
1758146965.328,1758146965328,4.63100004196167,4631,803.0403,821.978,786.9231,809.4872
1758146965.328,1758146965328,4.63100004196167,4631,699.89014,732.1245,694.2491,804.2491
1758146965.329,1758146965329,4.631999969482422,4632,770.40295,766.77655,803.44324,801.4286
1758146965.368,1758146965368,4.671000003814697,4671,892.49084,859.0476,923.91943,803.8461
1758146965.368,1758146965368,4.671000003814697,4671,843.73627,844.94507,820.7692,804.2491
1758146965.369,1758146965369,4.671999931335449,4672,709.15753,740.989,680.14655,794.9817
1758146965.369,1758146965369,4.671999931335449,4672,728.0952,734.1392,759.5238,793.7729
1758146965.371,1758146965371,4.674000024795532,4674,861.4652,838.0952,961.39197,805.4579
1758146965.371,1758146965371,4.674000024795532,4674,868.71796,865.4945,940.0366,809.0842
1758146965.371,1758146965371,4.674000024795532,4674,730.10986,765.56775,675.7143,801.4286
1758146965.372,1758146965372,4.674999952316284,4675,695.05493,718.022,689.41394,796.99634
1758146965.372,1758146965372,4.674999952316284,4675,823.5897,806.6667,907.8022,801.02563
1758146965.372,1758146965372,4.674999952316284,4675,891.28204,875.9707,840.10986,803.0403
1758146965.373,1758146965373,4.675999879837036,4676,769.59705,797.8022,691.4286,798.60803
1758146965.373,1758146965373,4.675999879837036,4676,684.57874,720.0366,702.71063,795.38464
1758146965.407,1758146965407,4.710000038146973,4710,790.14655,783.69965,843.73627,799.41394
1758146965.408,1758146965408,4.710999965667725,4711,900.9524,875.9707,940.4396,806.6667
1758146965.408,1758146965408,4.710999965667725,4711,812.3077,825.2015,755.09155,807.47253
1758146965.408,1758146965408,4.710999965667725,4711,691.02563,725.6777,630.58606,801.8315
1758146965.409,1758146965409,4.711999893188477,4712,762.3443,758.71796,857.03296,802.6374
1758146965.409,1758146965409,4.711999893188477,4712,900.9524,867.1062,1034.7252,809.89014
1758146965.409,1758146965409,4.711999893188477,4712,859.85345,856.2271,815.9341,812.3077
1758146965.41,1758146965410,4.713000059127808,4713,715.2015,740.58606,568.1319,802.23444
1758146965.41,1758146965410,4.713000059127808,4713,723.2601,726.08057,749.45056,795.38464
1758146965.41,1758146965410,4.713000059127808,4713,867.1062,832.0513,944.87177,801.02563
1758146965.41,1758146965410,4.713000059127808,4713,889.67035,870.32965,893.69965,805.4579
1758146965.411,1758146965411,4.71399998664856,4714,745.0183,768.7912,716.4103,802.23444
1758146965.439,1758146965439,4.741999864578247,4742,691.8315,708.7546,672.0879,796.1905
1758146965.439,1758146965439,4.741999864578247,4742,820.3663,799.011,902.5641,798.60803
1758146965.44,1758146965440,4.743000030517578,4743,906.99634,884.43225,947.28937,807.47253
1758146965.44,1758146965440,4.743000030517578,4743,789.34064,805.4579,697.0696,804.65204
1758146965.44,1758146965440,4.743000030517578,4743,687.3993,705.9341,695.4579,793.36993
1758146965.441,1758146965441,4.74399995803833,4744,794.57874,774.0293,968.24176,797.3993
1758146965.442,1758146965442,4.744999885559082,4745,915.05493,879.19415,934.3956,805.05493
1758146965.442,1758146965442,4.744999885559082,4745,820.3663,827.619,707.1429,800.6227
1758146965.443,1758146965443,4.746000051498413,4746,691.4286,724.4689,679.7436,796.5934
1758146965.443,1758146965443,4.746000051498413,4746,755.89746,750.2564,809.89014,795.38464
1758146965.443,1758146965443,4.746000051498413,4746,900.54944,857.03296,921.0989,801.02563
1758146965.444,1758146965444,4.746999979019165,4747,869.92676,857.03296,785.31134,803.44324
1758146965.493,1758146965493,4.796000003814697,4796,718.022,747.8388,652.74725,796.5934
1758146965.494,1758146965494,4.796999931335449,4797,718.022,724.4689,795.38464,794.9817
1758146965.494,1758146965494,4.796999931335449,4797,863.0769,832.0513,1000.07324,801.02563
1758146965.495,1758146965495,4.797999858856201,4798,894.10254,884.83514,833.663,807.8755
1758146965.495,1758146965495,4.797999858856201,4798,758.315,789.7436,666.04395,810.293
1758146965.495,1758146965495,4.797999858856201,4798,701.50183,724.87177,799.011,803.44324
1758146965.496,1758146965496,4.799000024795532,4799,823.1868,809.4872,873.1502,801.4286
1758146965.496,1758146965496,4.799000024795532,4799,912.6374,896.52014,857.03296,809.89014
1758146965.496,1758146965496,4.799000024795532,4799,791.75824,817.5458,725.2747,807.0696
1758146965.497,1758146965497,4.799999952316284,4800,679.34064,719.2308,659.59705,803.44324
1758146965.497,1758146965497,4.799999952316284,4800,778.46155,779.2674,878.3883,806.26373
1758146965.497,1758146965497,4.799999952316284,4800,910.2198,884.83514,930.7692,809.4872
1758146965.532,1758146965532,4.835000038146973,4835,828.8278,843.3333,747.4359,808.2784
1758146965.532,1758146965532,4.835000038146973,4835,689.41394,730.5128,655.16486,801.02563
1758146965.533,1758146965533,4.835999965667725,4836,739.7802,747.4359,830.84247,797.8022
1758146965.533,1758146965533,4.835999965667725,4836,885.64105,860.2564,936.0073,803.8461
1758146965.533,1758146965533,4.835999965667725,4836,877.5824,876.77655,845.34796,811.0989
1758146965.534,1758146965534,4.836999893188477,4837,735.7509,768.3883,737.3626,809.89014
1758146965.534,1758146965534,4.836999893188477,4837,710.7692,724.87177,734.94507,800.6227
1758146965.534,1758146965534,4.836999893188477,4837,846.1539,822.7839,853.8095,803.44324
1758146965.536,1758146965536,4.83899998664856,4839,907.3993,887.25275,882.8205,809.89014
1758146965.536,1758146965536,4.83899998664856,4839,770.80585,787.72894,676.52014,801.4286
1758146965.537,1758146965537,4.8399999141693115,4840,685.78754,702.71063,651.53845,793.7729
1758146965.537,1758146965537,4.8399999141693115,4840,811.9048,784.5055,881.6117,799.81683
1758146965.587,1758146965587,4.889999866485596,4890,931.1722,889.2674,956.9597,812.71063
1758146965.589,1758146965589,4.891999959945679,4892,827.619,819.5604,754.68866,809.89014
1758146965.589,1758146965589,4.891999959945679,4892,700.293,713.1868,671.685,798.60803
1758146965.59,1758146965590,4.892999887466431,4893,776.8498,772.8205,859.45056,803.0403
1758146965.59,1758146965590,4.892999887466431,4893,904.57874,891.685,977.50916,811.0989
1758146965.59,1758146965590,4.892999887466431,4893,836.4835,867.1062,821.1722,813.1135
1758146965.591,1758146965591,4.894000053405762,4894,687.8022,748.6447,642.27106,807.47253
1758146965.591,1758146965591,4.894000053405762,4894,714.7985,743.00366,707.1429,800.2198
1758146965.592,1758146965592,4.894999980926514,4895,865.89746,853.00366,950.9158,803.0403
1758146965.592,1758146965592,4.894999980926514,4895,879.59705,883.6264,871.9414,806.26373
1758146965.592,1758146965592,4.894999980926514,4895,731.31866,770.0,623.73627,800.6227
1758146965.593,1758146965593,4.895999908447266,4896,693.8461,717.2161,713.5897,801.4286
1758146965.625,1758146965625,4.927999973297119,4928,833.2601,816.337,913.0403,804.65204
1758146965.625,1758146965625,4.927999973297119,4928,907.3993,895.31134,920.293,808.2784
1758146965.626,1758146965626,4.928999900817871,4929,771.2088,801.02563,690.2198,807.8755
1758146965.626,1758146965626,4.928999900817871,4929,678.93774,708.3516,672.0879,804.65204
1758146965.626,1758146965626,4.928999900817871,4929,791.75824,782.49084,915.4579,805.4579
1758146965.626,1758146965626,4.928999900817871,4929,905.78754,881.2088,1014.17584,810.696
1758146965.627,1758146965627,4.930000066757202,4930,806.26373,819.5604,724.4689,811.9048
1758146965.627,1758146965627,4.930000066757202,4930,677.326,711.5751,603.1868,803.44324
1758146965.627,1758146965627,4.930000066757202,4930,752.27106,751.4652,866.30035,800.6227
1758146965.628,1758146965628,4.930999994277954,4931,890.87915,863.8828,928.3516,803.0403
1758146965.629,1758146965629,4.931999921798706,4932,849.3773,850.989,753.0769,805.05493
1758146965.63,1758146965630,4.933000087738037,4933,710.3663,742.1978,629.7802,799.81683
1758146965.681,1758146965681,4.983999967575073,4984,729.707,733.73627,826.4103,799.011
1758146965.682,1758146965682,4.984999895095825,4985,875.9707,842.52747,963.00366,809.4872
1758146965.682,1758146965682,4.984999895095825,4985,897.72894,886.04395,836.8865,815.12823
1758146965.683,1758146965683,4.986000061035156,4986,748.24176,779.2674,649.12085,809.89014
1758146965.683,1758146965683,4.986000061035156,4986,694.65204,715.6044,746.2271,803.8461
1758146965.684,1758146965684,4.986999988555908,4987,833.663,815.12823,1006.52014,808.68134
1758146965.685,1758146965685,4.98799991607666,4988,918.68134,898.1319,943.2601,815.12823
1758146965.685,1758146965685,4.98799991607666,4988,790.9524,811.50183,647.9121,811.9048
1758146965.686,1758146965686,4.989000082015991,4989,686.1905,714.3956,613.2601,799.011
1758146965.686,1758146965686,4.989000082015991,4989,792.5641,779.67035,892.8938,800.6227
1758146965.687,1758146965687,4.990000009536743,4990,921.0989,885.2381,967.8388,807.0696
1758146965.687,1758146965687,4.990000009536743,4990,832.8571,840.10986,755.09155,805.4579
1758146965.729,1758146965729,5.0320000648498535,5032,699.0842,726.08057,657.1795,800.2198
1758146965.729,1758146965729,5.0320000648498535,5032,755.09155,742.1978,821.978,800.2198
1758146965.73,1758146965730,5.0329999923706055,5033,898.1319,860.65936,983.95605,809.89014
1758146965.73,1758146965730,5.0329999923706055,5033,869.12085,864.68866,796.1905,813.5165
1758146965.73,1758146965730,5.0329999923706055,5033,715.6044,751.06226,687.8022,806.6667
1758146965.731,1758146965731,5.033999919891357,5034,710.7692,727.6923,808.68134,803.44324
1758146965.731,1758146965731,5.033999919891357,5034,853.00366,832.8571,923.1135,806.26373
1758146965.731,1758146965731,5.033999919891357,5034,896.52014,886.8498,842.52747,811.0989
1758146965.732,1758146965732,5.0350000858306885,5035,753.0769,782.8938,667.6557,808.2784
1758146965.732,1758146965732,5.0350000858306885,5035,680.9524,707.9487,696.26373,798.60803
1758146965.732,1758146965732,5.0350000858306885,5035,809.4872,796.1905,884.0293,799.81683
1758146965.733,1758146965733,5.03600001335144,5036,908.60803,889.2674,912.23444,806.6667
1758146965.767,1758146965767,5.069999933242798,5070,792.1612,811.0989,750.2564,801.8315
1758146965.768,1758146965768,5.07099986076355,5071,678.1319,712.7839,703.91943,796.5934
1758146965.768,1758146965768,5.07099986076355,5071,772.01465,772.01465,829.6337,802.23444
1758146965.768,1758146965768,5.07099986076355,5071,904.17584,880.0,902.96704,806.6667
1758146965.769,1758146965769,5.072000026702881,5072,831.6484,848.5714,778.46155,803.0403
1758146965.769,1758146965769,5.072000026702881,5072,697.47253,743.00366,732.1245,799.41394
1758146965.769,1758146965769,5.072000026702881,5072,738.5714,744.21246,813.91943,799.81683
1758146965.769,1758146965769,5.072000026702881,5072,877.5824,847.76556,845.7509,804.2491
1758146965.77,1758146965770,5.072999954223633,5073,880.40295,869.92676,795.38464,803.8461
1758146965.77,1758146965770,5.072999954223633,5073,734.1392,755.89746,672.0879,799.81683
1758146965.77,1758146965770,5.072999954223633,5073,703.5165,709.9634,722.8571,794.17584
1758146965.771,1758146965771,5.073999881744385,5074,850.18317,818.3516,890.87915,798.20514
1758146965.816,1758146965816,5.11899995803833,5119,916.26373,891.685,919.4872,805.8608
1758146965.817,1758146965817,5.119999885559082,5120,776.8498,789.7436,722.0513,798.20514
1758146965.817,1758146965817,5.119999885559082,5120,686.5934,705.5311,689.41394,790.14655
1758146965.817,1758146965817,5.119999885559082,5120,809.0842,784.90845,902.5641,789.7436
1758146965.818,1758146965818,5.121000051498413,5121,925.9341,886.8498,970.2564,796.5934
1758146965.818,1758146965818,5.121000051498413,5121,817.1429,828.022,786.9231,798.60803
1758146965.818,1758146965818,5.121000051498413,5121,692.6374,725.2747,686.1905,795.38464
1758146965.819,1758146965819,5.121999979019165,5122,772.4176,764.7619,829.6337,797.3993
1758146965.819,1758146965819,5.121999979019165,5122,908.60803,875.16486,961.79486,803.8461
1758146965.819,1758146965819,5.121999979019165,5122,848.5714,858.6447,716.4103,804.65204
1758146965.82,1758146965820,5.122999906539917,5123,695.4579,744.61536,641.06226,800.2198
1758146965.82,1758146965820,5.122999906539917,5123,720.0366,736.55676,786.9231,797.3993
1758146965.88,1758146965880,5.183000087738037,5183,871.53845,852.6007,896.52014,805.4579
1758146965.88,1758146965880,5.183000087738037,5183,886.8498,890.07324,879.59705,811.9048
1758146965.882,1758146965882,5.184999942779541,5185,739.3773,772.01465,682.96704,806.6667
1758146965.882,1758146965882,5.184999942779541,5185,698.68134,712.381,709.15753,800.6227
1758146965.882,1758146965882,5.184999942779541,5185,834.0659,812.71063,913.8461,800.6227
1758146965.883,1758146965883,5.185999870300293,5186,910.6227,893.69965,978.71796,803.8461
1758146965.883,1758146965883,5.185999870300293,5186,776.4469,806.26373,729.707,801.8315
1758146965.883,1758146965883,5.185999870300293,5186,671.685,710.7692,595.12823,796.99634
