TimeStamp,Delta_TP9,Delta_AF7,Delta_AF8,Delta_TP10,Theta_TP9,Theta_AF7,Theta_AF8,Theta_TP10,Alpha_TP9,Alpha_AF7,Alpha_AF8,Alpha_TP10,Beta_TP9,Beta_AF7,Beta_AF8,Beta_TP10,Gamma_TP9,Gamma_AF7,Gamma_AF8,Gamma_TP10,RAW_TP9,RAW_AF7,RAW_AF8,RAW_TP10,AUX_RIGHT,AUX_LEFT,Accelerometer_X,Accelerometer_Y,Accelerometer_Z,Gyro_X,Gyro_Y,Gyro_Z,PPG_Ambient,PPG_IR,PPG_Red,Heart_Rate,HeadBandOn,HSI_TP9,HSI_AF7,HSI_AF8,HSI_TP10,Battery,Elements
2025-09-24 18:44:54.318,,,,,,,,,,,,,,,,,,,,,,,,,,,,,,,,,,,,,,,,,,,/muse/event/connected MuseS-9CF6
2025-09-24 18:44:54.357,1.696337600974765,0.1759370574461175,-0.006218414243433444,1.508119174615841,1.128976180890786,0.3182289130665287,-0.4055944448854639,1.139350045713755,1.421972791690426,0.4174162552904048,0.01435454364211085,1.492951558132009,0.8289365698025873,1.314891424456674,-0.1665552886617777,0.955331269241533,-0.01970327855457014,1.180525663563776,-0.6146050161133133,0.4728958463845322,815.5311355311355,799.0109890109891,798.6080586080586,800.6227106227107,826.8131868131868,682.1611721611722,-0.546936,0.043884,0.816345,0.231781,-1.779480,0.254211,422502344.322344,353009743.589744,2508644.688645,79.964066,1,1,1,1,1,99.000000
2025-09-24 18:44:54.357,1.696337600974765,0.1759370574461175,-0.006218414243433444,1.508119174615841,1.128976180890786,0.3182289130665287,-0.4055944448854639,1.139350045713755,1.421972791690426,0.4174162552904048,0.01435454364211085,1.492951558132009,0.8289365698025873,1.314891424456674,-0.1665552886617777,0.955331269241533,-0.01970327855457014,1.180525663563776,-0.6146050161133133,0.4728958463845322,812.3076923076924,792.1611721611722,796.5934065934066,809.8901098901099,828.8278388278388,628.5714285714286,-0.546936,0.043884,0.816345,0.231781,-1.779480,0.254211,422502344.322344,353009743.589744,2508644.688645,79.964066,1,1,1,1,1,99.000000
2025-09-24 18:44:54.357,1.696337600974765,0.1759370574461175,-0.006218414243433444,1.508119174615841,1.128976180890786,0.3182289130665287,-0.4055944448854639,1.139350045713755,1.421972791690426,0.4174162552904048,0.01435454364211085,1.492951558132009,0.8289365698025873,1.314891424456674,-0.1665552886617777,0.955331269241533,-0.01970327855457014,1.180525663563776,-0.6146050161133133,0.4728958463845322,807.8754578754579,807.4725274725275,799.0109890109891,813.5164835164835,803.8461538461539,517.7655677655678,-0.546936,0.043884,0.816345,0.231781,-1.779480,0.254211,422502344.322344,353009743.589744,2508644.688645,79.964066,1,1,1,1,1,99.000000
2025-09-24 18:44:54.357,1.696337600974765,0.1759370574461175,-0.006218414243433444,1.508119174615841,1.128976180890786,0.3182289130665287,-0.4055944448854639,1.139350045713755,1.421972791690426,0.4174162552904048,0.01435454364211085,1.492951558132009,0.8289365698025873,1.314891424456674,-0.1665552886617777,0.955331269241533,-0.01970327855457014,1.180525663563776,-0.6146050161133133,0.4728958463845322,802.6373626373627,832.0512820512821,797.3992673992674,810.2930402930403,839.7069597069598,687.3992673992674,-0.546936,0.043884,0.816345,0.231781,-1.779480,0.254211,422502344.322344,353009743.589744,2508644.688645,79.964066,1,1,1,1,1,99.000000
2025-09-24 18:44:54.358,1.696337600974765,0.1759370574461175,-0.006218414243433444,1.508119174615841,1.128976180890786,0.3182289130665287,-0.4055944448854639,1.139350045713755,1.421972791690426,0.4174162552904048,0.01435454364211085,1.492951558132009,0.8289365698025873,1.314891424456674,-0.1665552886617777,0.955331269241533,-0.01970327855457014,1.180525663563776,-0.6146050161133133,0.4728958463845322,801.8315018315019,813.5164835164835,795.7875457875458,808.6813186813187,849.3772893772895,879.1941391941392,-0.546936,0.043884,0.816345,0.231781,-1.779480,0.254211,422502344.322344,353009743.589744,2508644.688645,79.964066,1,1,1,1,1,99.000000
2025-09-24 18:44:54.358,1.696337600974765,0.1759370574461175,-0.006218414243433444,1.508119174615841,1.128976180890786,0.3182289130665287,-0.4055944448854639,1.139350045713755,1.421972791690426,0.4174162552904048,0.01435454364211085,1.492951558132009,0.8289365698025873,1.314891424456674,-0.1665552886617777,0.955331269241533,-0.01970327855457014,1.180525663563776,-0.6146050161133133,0.4728958463845322,807.0695970695971,814.7252747252747,799.8168498168499,811.0989010989011,813.919413919414,1052.051282051282,-0.546936,0.043884,0.816345,0.231781,-1.779480,0.254211,422502344.322344,353009743.589744,2508644.688645,79.964066,1,1,1,1,1,99.000000
2025-09-24 18:44:54.358,1.696337600974765,0.1759370574461175,-0.006218414243433444,1.508119174615841,1.128976180890786,0.3182289130665287,-0.4055944448854639,1.139350045713755,1.421972791690426,0.4174162552904048,0.01435454364211085,1.492951558132009,0.8289365698025873,1.314891424456674,-0.1665552886617777,0.955331269241533,-0.01970327855457014,1.180525663563776,-0.6146050161133133,0.4728958463845322,808.6813186813187,809.4871794871796,800.6227106227107,822.3809523809524,839.3040293040293,1064.139194139194,-0.546936,0.043884,0.816345,0.231781,-1.779480,0.254211,422502344.322344,353009743.589744,2508644.688645,79.964066,1,1,1,1,1,99.000000
2025-09-24 18:44:54.358,1.696337600974765,0.1759370574461175,-0.006218414243433444,1.508119174615841,1.128976180890786,0.3182289130665287,-0.4055944448854639,1.139350045713755,1.421972791690426,0.4174162552904048,0.01435454364211085,1.492951558132009,0.8289365698025873,1.314891424456674,-0.1665552886617777,0.955331269241533,-0.01970327855457014,1.180525663563776,-0.6146050161133133,0.4728958463845322,812.3076923076924,771.6117216117216,805.8608058608058,829.6336996336996,861.4652014652015,816.7399267399268,-0.546936,0.043884,0.816345,0.231781,-1.779480,0.254211,422502344.322344,353009743.589744,2508644.688645,79.964066,1,1,1,1,1,99.000000
2025-09-24 18:44:54.358,1.696337600974765,0.1759370574461175,-0.006218414243433444,1.508119174615841,1.128976180890786,0.3182289130665287,-0.4055944448854639,1.139350045713755,1.421972791690426,0.4174162552904048,0.01435454364211085,1.492951558132009,0.8289365698025873,1.314891424456674,-0.1665552886617777,0.955331269241533,-0.01970327855457014,1.180525663563776,-0.6146050161133133,0.4728958463845322,813.1135531135532,779.2673992673992,806.2637362637363,817.5457875457876,882.8205128205128,731.3186813186813,-0.546936,0.043884,0.816345,0.231781,-1.779480,0.254211,422502344.322344,353009743.589744,2508644.688645,79.964066,1,1,1,1,1,99.000000
2025-09-24 18:44:54.358,1.696337600974765,0.1759370574461175,-0.006218414243433444,1.508119174615841,1.128976180890786,0.3182289130665287,-0.4055944448854639,1.139350045713755,1.421972791690426,0.4174162552904048,0.01435454364211085,1.492951558132009,0.8289365698025873,1.314891424456674,-0.1665552886617777,0.955331269241533,-0.01970327855457014,1.180525663563776,-0.6146050161133133,0.4728958463845322,804.6520146520147,788.9377289377289,799.8168498168499,812.7106227106227,907.3992673992674,720.0366300366301,-0.546936,0.043884,0.816345,0.231781,-1.779480,0.254211,422502344.322344,353009743.589744,2508644.688645,79.964066,1,1,1,1,1,99.000000
2025-09-24 18:44:54.358,1.696337600974765,0.1759370574461175,-0.006218414243433444,1.508119174615841,1.128976180890786,0.3182289130665287,-0.4055944448854639,1.139350045713755,1.421972791690426,0.4174162552904048,0.01435454364211085,1.492951558132009,0.8289365698025873,1.314891424456674,-0.1665552886617777,0.955331269241533,-0.01970327855457014,1.180525663563776,-0.6146050161133133,0.4728958463845322,795.3846153846154,808.2783882783883,801.025641025641,813.1135531135532,898.9377289377289,628.5714285714286,-0.546936,0.043884,0.816345,0.231781,-1.779480,0.254211,422502344.322344,353009743.589744,2508644.688645,79.964066,1,1,1,1,1,99.000000
2025-09-24 18:44:54.359,1.696337600974765,0.1759370574461175,-0.006218414243433444,1.508119174615841,1.128976180890786,0.3182289130665287,-0.4055944448854639,1.139350045713755,1.421972791690426,0.4174162552904048,0.01435454364211085,1.492951558132009,0.8289365698025873,1.314891424456674,-0.1665552886617777,0.955331269241533,-0.01970327855457014,1.180525663563776,-0.6146050161133133,0.4728958463845322,796.996336996337,863.0769230769231,803.040293040293,813.919413919414,913.040293040293,960.1831501831502,-0.546936,0.043884,0.816345,0.231781,-1.779480,0.254211,422502344.322344,353009743.589744,2508644.688645,79.964066,1,1,1,1,1,99.000000
2025-09-24 18:44:54.359,1.696337600974765,0.1759370574461175,-0.006218414243433444,1.508119174615841,1.128976180890786,0.3182289130665287,-0.4055944448854639,1.139350045713755,1.421972791690426,0.4174162552904048,0.01435454364211085,1.492951558132009,0.8289365698025873,1.314891424456674,-0.1665552886617777,0.955331269241533,-0.01970327855457014,1.180525663563776,-0.6146050161133133,0.4728958463845322,800.2197802197802,784.5054945054945,803.040293040293,826.8131868131868,925.1282051282052,958.5714285714286,-0.547852,0.040588,0.821411,-0.216827,-1.091614,0.209351,422502344.322344,353009743.589744,2508644.688645,79.964066,1,1,1,1,1,99.000000
2025-09-24 18:44:54.359,1.696337600974765,0.1759370574461175,-0.006218414243433444,1.508119174615841,1.128976180890786,0.3182289130665287,-0.4055944448854639,1.139350045713755,1.421972791690426,0.4174162552904048,0.01435454364211085,1.492951558132009,0.8289365698025873,1.314891424456674,-0.1665552886617777,0.955331269241533,-0.01970327855457014,1.180525663563776,-0.6146050161133133,0.4728958463845322,794.981684981685,789.3406593406594,804.6520146520147,836.0805860805862,868.3150183150184,784.1025641025641,-0.547852,0.040588,0.821411,-0.216827,-1.091614,0.209351,422502344.322344,353009743.589744,2508644.688645,79.964066,1,1,1,1,1,99.000000
2025-09-24 18:44:54.359,1.696337600974765,0.1759370574461175,-0.006218414243433444,1.508119174615841,1.128976180890786,0.3182289130665287,-0.4055944448854639,1.139350045713755,1.421972791690426,0.4174162552904048,0.01435454364211085,1.492951558132009,0.8289365698025873,1.314891424456674,-0.1665552886617777,0.955331269241533,-0.01970327855457014,1.180525663563776,-0.6146050161133133,0.4728958463845322,783.2967032967033,838.4981684981685,802.2344322344322,829.2307692307693,814.3223443223443,994.8351648351648,-0.547852,0.040588,0.821411,-0.216827,-1.091614,0.209351,422502344.322344,353009743.589744,2508644.688645,79.964066,1,1,1,1,1,99.000000
2025-09-24 18:44:54.359,1.696337600974765,0.1759370574461175,-0.006218414243433444,1.508119174615841,1.128976180890786,0.3182289130665287,-0.4055944448854639,1.139350045713755,1.421972791690426,0.4174162552904048,0.01435454364211085,1.492951558132009,0.8289365698025873,1.314891424456674,-0.1665552886617777,0.955331269241533,-0.01970327855457014,1.180525663563776,-0.6146050161133133,0.4728958463845322,784.1025641025641,787.3260073260074,804.6520146520147,826.007326007326,835.2747252747253,983.5531135531136,-0.547852,0.040588,0.821411,-0.216827,-1.091614,0.209351,422502344.322344,353009743.589744,2508644.688645,79.964066,1,1,1,1,1,99.000000
2025-09-24 18:44:54.359,1.696337600974765,0.1759370574461175,-0.006218414243433444,1.508119174615841,1.128976180890786,0.3182289130665287,-0.4055944448854639,1.139350045713755,1.421972791690426,0.4174162552904048,0.01435454364211085,1.492951558132009,0.8289365698025873,1.314891424456674,-0.1665552886617777,0.955331269241533,-0.01970327855457014,1.180525663563776,-0.6146050161133133,0.4728958463845322,793.3699633699634,773.2234432234433,809.0842490842491,831.2454212454213,899.7435897435897,838.4981684981685,-0.547852,0.040588,0.821411,-0.216827,-1.091614,0.209351,422502344.322344,353009743.589744,2508644.688645,79.964066,1,1,1,1,1,99.000000
2025-09-24 18:44:54.359,1.696337600974765,0.1759370574461175,-0.006218414243433444,1.508119174615841,1.128976180890786,0.3182289130665287,-0.4055944448854639,1.139350045713755,1.421972791690426,0.4174162552904048,0.01435454364211085,1.492951558132009,0.8289365698025873,1.314891424456674,-0.1665552886617777,0.955331269241533,-0.01970327855457014,1.180525663563776,-0.6146050161133133,0.4728958463845322,790.5494505494506,801.4285714285714,806.2637362637363,821.5750915750916,820.7692307692308,850.1831501831502,-0.547852,0.040588,0.821411,-0.216827,-1.091614,0.209351,422502344.322344,353009743.589744,2508644.688645,79.964066,1,1,1,1,1,99.000000
2025-09-24 18:44:54.360,1.696337600974765,0.1759370574461175,-0.006218414243433444,1.508119174615841,1.128976180890786,0.3182289130665287,-0.4055944448854639,1.139350045713755,1.421972791690426,0.4174162552904048,0.01435454364211085,1.492951558132009,0.8289365698025873,1.314891424456674,-0.1665552886617777,0.955331269241533,-0.01970327855457014,1.180525663563776,-0.6146050161133133,0.4728958463845322,789.7435897435897,832.8571428571429,801.025641025641,811.0989010989011,784.1025641025641,969.8534798534798,-0.547852,0.040588,0.821411,-0.216827,-1.091614,0.209351,422502344.322344,353009743.589744,2508644.688645,79.964066,1,1,1,1,1,99.000000
2025-09-24 18:44:54.360,1.696337600974765,0.1759370574461175,-0.006218414243433444,1.508119174615841,1.128976180890786,0.3182289130665287,-0.4055944448854639,1.139350045713755,1.421972791690426,0.4174162552904048,0.01435454364211085,1.492951558132009,0.8289365698025873,1.314891424456674,-0.1665552886617777,0.955331269241533,-0.01970327855457014,1.180525663563776,-0.6146050161133133,0.4728958463845322,789.7435897435897,796.5934065934066,796.5934065934066,814.7252747252747,857.4358974358975,980.7326007326008,-0.547852,0.040588,0.821411,-0.216827,-1.091614,0.209351,422502344.322344,353009743.589744,2508644.688645,79.964066,1,1,1,1,1,99.000000
2025-09-24 18:44:54.360,1.696337600974765,0.1759370574461175,-0.006218414243433444,1.508119174615841,1.128976180890786,0.3182289130665287,-0.4055944448854639,1.139350045713755,1.421972791690426,0.4174162552904048,0.01435454364211085,1.492951558132009,0.8289365698025873,1.314891424456674,-0.1665552886617777,0.955331269241533,-0.01970327855457014,1.180525663563776,-0.6146050161133133,0.4728958463845322,794.5787545787546,761.941391941392,797.3992673992674,810.2930402930403,852.1978021978023,750.6593406593407,-0.547852,0.040588,0.821411,-0.216827,-1.091614,0.209351,422502344.322344,353009743.589744,2508644.688645,79.964066,1,1,1,1,1,99.000000
2025-09-24 18:44:54.360,1.677597790310293,0.1759370574461175,-0.03419357924523453,1.487752903079729,1.10289220448257,0.3182289130665287,-0.4150112374995215,1.122343425877276,1.421972791690426,0.4174162552904048,-0.006719790458185361,1.492951558132009,0.8031888087452249,1.314891424456674,-0.1766571748815188,0.938839918631837,-0.008854290103896767,1.180525663563776,-0.6055048349675911,0.4516719445716186,802.6373626373627,786.5201465201466,800.6227106227107,807.0695970695971,848.1684981684982,644.2857142857143,-0.547852,0.040588,0.821411,-0.216827,-1.091614,0.209351,422502344.322344,353009743.589744,2508644.688645,79.964066,1,1,1,1,1,99.000000
2025-09-24 18:44:54.361,1.677597790310293,0.1759370574461175,-0.03419357924523453,1.487752903079729,1.10289220448257,0.3182289130665287,-0.4150112374995215,1.122343425877276,1.421972791690426,0.4174162552904048,-0.006719790458185361,1.492951558132009,0.8031888087452249,1.314891424456674,-0.1766571748815188,0.938839918631837,-0.008854290103896767,1.180525663563776,-0.6055048349675911,0.4516719445716186,807.0695970695971,792.1611721611722,801.025641025641,807.4725274725275,848.974358974359,531.8681318681319,-0.547852,0.040588,0.821411,-0.216827,-1.091614,0.209351,422502344.322344,353009743.589744,2508644.688645,79.964066,1,1,1,1,1,99.000000
2025-09-24 18:44:54.361,1.677597790310293,0.1759370574461175,-0.03419357924523453,1.487752903079729,1.10289220448257,0.3182289130665287,-0.4150112374995215,1.122343425877276,1.421972791690426,0.4174162552904048,-0.006719790458185361,1.492951558132009,0.8031888087452249,1.314891424456674,-0.1766571748815188,0.938839918631837,-0.008854290103896767,1.180525663563776,-0.6055048349675911,0.4516719445716186,809.8901098901099,817.1428571428571,800.6227106227107,807.4725274725275,785.3113553113553,612.8571428571429,-0.547852,0.040588,0.821411,-0.216827,-1.091614,0.209351,422502344.322344,353009743.589744,2508644.688645,79.964066,1,1,1,1,1,99.000000
2025-09-24 18:44:54.362,1.677597790310293,0.1759370574461175,-0.03419357924523453,1.487752903079729,1.10289220448257,0.3182289130665287,-0.4150112374995215,1.122343425877276,1.421972791690426,0.4174162552904048,-0.006719790458185361,1.492951558132009,0.8031888087452249,1.314891424456674,-0.1766571748815188,0.938839918631837,-0.008854290103896767,1.180525663563776,-0.6055048349675911,0.4516719445716186,814.3223443223443,816.3369963369963,801.4285714285714,810.2930402930403,793.3699633699634,716.007326007326,-0.547852,0.040588,0.821411,-0.216827,-1.091614,0.209351,422502344.322344,352762344.322344,2507838.827839,79.917908,1,1,1,1,1,99.000000
2025-09-24 18:44:54.362,1.677597790310293,0.1759370574461175,-0.03419357924523453,1.487752903079729,1.10289220448257,0.3182289130665287,-0.4150112374995215,1.122343425877276,1.421972791690426,0.4174162552904048,-0.006719790458185361,1.492951558132009,0.8031888087452249,1.314891424456674,-0.1766571748815188,0.938839918631837,-0.008854290103896767,1.180525663563776,-0.6055048349675911,0.4516719445716186,811.0989010989011,786.9230769230769,804.6520146520147,801.4285714285714,813.919413919414,626.1538461538462,-0.547852,0.040588,0.821411,-0.216827,-1.091614,0.209351,422502344.322344,352762344.322344,2507838.827839,79.917908,1,1,1,1,1,99.000000
2025-09-24 18:44:54.362,1.677597790310293,0.1759370574461175,-0.03419357924523453,1.487752903079729,1.10289220448257,0.3182289130665287,-0.4150112374995215,1.122343425877276,1.421972791690426,0.4174162552904048,-0.006719790458185361,1.492951558132009,0.8031888087452249,1.314891424456674,-0.1766571748815188,0.938839918631837,-0.008854290103896767,1.180525663563776,-0.6055048349675911,0.4516719445716186,806.6666666666667,832.4542124542124,806.6666666666667,788.9377289377289,868.3150183150184,770,-0.547852,0.040588,0.821411,-0.216827,-1.091614,0.209351,422502344.322344,352762344.322344,2507838.827839,79.917908,1,1,1,1,1,99.000000
2025-09-24 18:44:54.362,1.677597790310293,0.1759370574461175,-0.03419357924523453,1.487752903079729,1.10289220448257,0.3182289130665287,-0.4150112374995215,1.122343425877276,1.421972791690426,0.4174162552904048,-0.006719790458185361,1.492951558132009,0.8031888087452249,1.314891424456674,-0.1766571748815188,0.938839918631837,-0.008854290103896767,1.180525663563776,-0.6055048349675911,0.4516719445716186,803.4432234432235,826.8131868131868,807.0695970695971,794.981684981685,886.8498168498169,938.8278388278388,-0.547852,0.040588,0.821411,-0.216827,-1.091614,0.209351,422502344.322344,352762344.322344,2507838.827839,79.917908,1,1,1,1,1,99.000000
2025-09-24 18:44:54.362,1.677597790310293,0.1759370574461175,-0.03419357924523453,1.487752903079729,1.10289220448257,0.3182289130665287,-0.4150112374995215,1.122343425877276,1.421972791690426,0.4174162552904048,-0.006719790458185361,1.492951558132009,0.8031888087452249,1.314891424456674,-0.1766571748815188,0.938839918631837,-0.008854290103896767,1.180525663563776,-0.6055048349675911,0.4516719445716186,799.8168498168499,795.3846153846154,807.8754578754579,799.4139194139194,870.7326007326008,809.0842490842491,-0.547852,0.040588,0.821411,-0.216827,-1.091614,0.209351,422502344.322344,352762344.322344,2507838.827839,79.917908,1,1,1,1,1,99.000000
2025-09-24 18:44:54.362,1.677597790310293,0.1759370574461175,-0.03419357924523453,1.487752903079729,1.10289220448257,0.3182289130665287,-0.4150112374995215,1.122343425877276,1.421972791690426,0.4174162552904048,-0.006719790458185361,1.492951558132009,0.8031888087452249,1.314891424456674,-0.1766571748815188,0.938839918631837,-0.008854290103896767,1.180525663563776,-0.6055048349675911,0.4516719445716186,798.6080586080586,837.6923076923077,806.2637362637363,797.8021978021978,896.1172161172161,994.8351648351648,-0.547852,0.040588,0.821411,-0.216827,-1.091614,0.209351,422502344.322344,352762344.322344,2507838.827839,79.917908,1,1,1,1,1,99.000000
2025-09-24 18:44:54.363,1.677597790310293,0.1759370574461175,-0.03419357924523453,1.487752903079729,1.10289220448257,0.3182289130665287,-0.4150112374995215,1.122343425877276,1.421972791690426,0.4174162552904048,-0.006719790458185361,1.492951558132009,0.8031888087452249,1.314891424456674,-0.1766571748815188,0.938839918631837,-0.008854290103896767,1.180525663563776,-0.6055048349675911,0.4516719445716186,796.1904761904763,796.5934065934066,803.8461538461539,803.040293040293,886.4468864468864,982.3443223443223,-0.547852,0.040588,0.821411,-0.216827,-1.091614,0.209351,422502344.322344,352762344.322344,2507838.827839,79.917908,1,1,1,1,1,99.000000
2025-09-24 18:44:54.363,1.677597790310293,0.1759370574461175,-0.03419357924523453,1.487752903079729,1.10289220448257,0.3182289130665287,-0.4150112374995215,1.122343425877276,1.421972791690426,0.4174162552904048,-0.006719790458185361,1.492951558132009,0.8031888087452249,1.314891424456674,-0.1766571748815188,0.938839918631837,-0.008854290103896767,1.180525663563776,-0.6055048349675911,0.4516719445716186,793.3699633699634,761.5384615384615,805.8608058608058,799.0109890109891,902.5641025641025,857.8388278388279,-0.547852,0.040588,0.821411,-0.216827,-1.091614,0.209351,422502344.322344,352762344.322344,2507838.827839,79.917908,1,1,1,1,1,99.000000
2025-09-24 18:44:54.363,1.677597790310293,0.1759370574461175,-0.03419357924523453,1.487752903079729,1.10289220448257,0.3182289130665287,-0.4150112374995215,1.122343425877276,1.421972791690426,0.4174162552904048,-0.006719790458185361,1.492951558132009,0.8031888087452249,1.314891424456674,-0.1766571748815188,0.938839918631837,-0.008854290103896767,1.180525663563776,-0.6055048349675911,0.4516719445716186,790.952380952381,770.8058608058608,805.4578754578755,794.1758241758242,944.8717948717949,750.2564102564103,-0.547852,0.040588,0.821411,-0.216827,-1.091614,0.209351,422502344.322344,352762344.322344,2507838.827839,79.917908,1,1,1,1,1,99.000000
2025-09-24 18:44:54.363,1.677597790310293,0.1759370574461175,-0.03419357924523453,1.487752903079729,1.10289220448257,0.3182289130665287,-0.4150112374995215,1.122343425877276,1.421972791690426,0.4174162552904048,-0.006719790458185361,1.492951558132009,0.8031888087452249,1.314891424456674,-0.1766571748815188,0.938839918631837,-0.008854290103896767,1.180525663563776,-0.6055048349675911,0.4516719445716186,792.5641025641025,795.7875457875458,806.2637362637363,802.6373626373627,946.0805860805862,712.3809523809524,-0.547852,0.040588,0.821411,-0.216827,-1.091614,0.209351,422502344.322344,352762344.322344,2507838.827839,79.917908,1,1,1,1,1,99.000000
2025-09-24 18:44:54.363,1.677597790310293,0.1759370574461175,-0.03419357924523453,1.487752903079729,1.10289220448257,0.3182289130665287,-0.4150112374995215,1.122343425877276,1.421972791690426,0.4174162552904048,-0.006719790458185361,1.492951558132009,0.8031888087452249,1.314891424456674,-0.1766571748815188,0.938839918631837,-0.008854290103896767,1.180525663563776,-0.6055048349675911,0.4516719445716186,797.3992673992674,794.1758241758242,806.6666666666667,807.8754578754579,905.3846153846154,706.7399267399268,-0.547852,0.040588,0.821411,-0.216827,-1.091614,0.209351,422502344.322344,352762344.322344,2507838.827839,79.917908,1,1,1,1,1,99.000000
2025-09-24 18:44:54.363,1.677597790310293,0.1759370574461175,-0.03419357924523453,1.487752903079729,1.10289220448257,0.3182289130665287,-0.4150112374995215,1.122343425877276,1.421972791690426,0.4174162552904048,-0.006719790458185361,1.492951558132009,0.8031888087452249,1.314891424456674,-0.1766571748815188,0.938839918631837,-0.008854290103896767,1.180525663563776,-0.6055048349675911,0.4516719445716186,793.7728937728938,792.967032967033,801.8315018315019,801.4285714285714,861.0622710622711,729.3040293040293,-0.547852,0.040588,0.821411,-0.216827,-1.091614,0.209351,422502344.322344,352762344.322344,2507838.827839,79.917908,1,1,1,1,1,99.000000
2025-09-24 18:44:54.363,1.677597790310293,0.1759370574461175,-0.03419357924523453,1.487752903079729,1.10289220448257,0.3182289130665287,-0.4150112374995215,1.122343425877276,1.421972791690426,0.4174162552904048,-0.006719790458185361,1.492951558132009,0.8031888087452249,1.314891424456674,-0.1766571748815188,0.938839918631837,-0.008854290103896767,1.180525663563776,-0.6055048349675911,0.4516719445716186,796.5934065934066,786.5201465201466,799.8168498168499,802.6373626373627,856.2271062271062,745.0183150183151,-0.550720,0.047180,0.815552,0.186920,-0.837402,-0.254211,422502344.322344,352762344.322344,2507838.827839,79.917908,1,1,1,1,1,99.000000
2025-09-24 18:44:54.364,1.677597790310293,0.1759370574461175,-0.03419357924523453,1.487752903079729,1.10289220448257,0.3182289130665287,-0.4150112374995215,1.122343425877276,1.421972791690426,0.4174162552904048,-0.006719790458185361,1.492951558132009,0.8031888087452249,1.314891424456674,-0.1766571748815188,0.938839918631837,-0.008854290103896767,1.180525663563776,-0.6055048349675911,0.4516719445716186,800.2197802197802,795.3846153846154,804.6520146520147,806.2637362637363,846.1538461538462,704.7252747252747,-0.550720,0.047180,0.815552,0.186920,-0.837402,-0.254211,422502344.322344,352762344.322344,2507838.827839,79.917908,1,1,1,1,1,99.000000
2025-09-24 18:44:54.364,1.677597790310293,0.1759370574461175,-0.03419357924523453,1.487752903079729,1.10289220448257,0.3182289130665287,-0.4150112374995215,1.122343425877276,1.421972791690426,0.4174162552904048,-0.006719790458185361,1.492951558132009,0.8031888087452249,1.314891424456674,-0.1766571748815188,0.938839918631837,-0.008854290103896767,1.180525663563776,-0.6055048349675911,0.4516719445716186,792.1611721611722,845.3479853479854,804.2490842490843,799.0109890109891,831.2454212454213,927.1428571428572,-0.550720,0.047180,0.815552,0.186920,-0.837402,-0.254211,422502344.322344,352762344.322344,2507838.827839,79.917908,1,1,1,1,1,99.000000
2025-09-24 18:44:54.364,1.677597790310293,0.1759370574461175,-0.03419357924523453,1.487752903079729,1.10289220448257,0.3182289130665287,-0.4150112374995215,1.122343425877276,1.421972791690426,0.4174162552904048,-0.006719790458185361,1.492951558132009,0.8031888087452249,1.314891424456674,-0.1766571748815188,0.938839918631837,-0.008854290103896767,1.180525663563776,-0.6055048349675911,0.4516719445716186,790.5494505494506,783.2967032967033,802.6373626373627,797.8021978021978,851.3919413919414,982.7472527472528,-0.550720,0.047180,0.815552,0.186920,-0.837402,-0.254211,422502344.322344,352762344.322344,2507838.827839,79.917908,1,1,1,1,1,99.000000
2025-09-24 18:44:54.364,1.677597790310293,0.1759370574461175,-0.03419357924523453,1.487752903079729,1.10289220448257,0.3182289130665287,-0.4150112374995215,1.122343425877276,1.421972791690426,0.4174162552904048,-0.006719790458185361,1.492951558132009,0.8031888087452249,1.314891424456674,-0.1766571748815188,0.938839918631837,-0.008854290103896767,1.180525663563776,-0.6055048349675911,0.4516719445716186,791.3553113553114,768.3882783882784,809.0842490842491,803.040293040293,875.9706959706959,759.92673992674,-0.550720,0.047180,0.815552,0.186920,-0.837402,-0.254211,422502344.322344,352762344.322344,2507838.827839,79.917908,1,1,1,1,1,99.000000
2025-09-24 18:44:54.364,1.677597790310293,0.1759370574461175,-0.03419357924523453,1.487752903079729,1.10289220448257,0.3182289130665287,-0.4150112374995215,1.122343425877276,1.421972791690426,0.4174162552904048,-0.006719790458185361,1.492951558132009,0.8031888087452249,1.314891424456674,-0.1766571748815188,0.938839918631837,-0.008854290103896767,1.180525663563776,-0.6055048349675911,0.4516719445716186,791.3553113553114,855.0183150183151,808.6813186813187,802.2344322344322,939.6336996336996,1106.446886446887,-0.550720,0.047180,0.815552,0.186920,-0.837402,-0.254211,422502344.322344,352762344.322344,2507838.827839,79.917908,1,1,1,1,1,99.000000
2025-09-24 18:44:54.364,1.677597790310293,0.1759370574461175,-0.03419357924523453,1.487752903079729,1.10289220448257,0.3182289130665287,-0.4150112374995215,1.122343425877276,1.421972791690426,0.4174162552904048,-0.006719790458185361,1.492951558132009,0.8031888087452249,1.314891424456674,-0.1766571748815188,0.938839918631837,-0.008854290103896767,1.180525663563776,-0.6055048349675911,0.4516719445716186,795.3846153846154,808.6813186813187,802.6373626373627,803.4432234432235,953.7362637362637,1248.681318681319,-0.550720,0.047180,0.815552,0.186920,-0.837402,-0.254211,422502344.322344,352762344.322344,2507838.827839,79.917908,1,1,1,1,1,99.000000
2025-09-24 18:44:54.364,1.677597790310293,0.1759370574461175,-0.03419357924523453,1.487752903079729,1.10289220448257,0.3182289130665287,-0.4150112374995215,1.122343425877276,1.421972791690426,0.4174162552904048,-0.006719790458185361,1.492951558132009,0.8031888087452249,1.314891424456674,-0.1766571748815188,0.938839918631837,-0.008854290103896767,1.180525663563776,-0.6055048349675911,0.4516719445716186,803.040293040293,784.9084249084249,800.2197802197802,807.8754578754579,873.956043956044,1165.274725274725,-0.550720,0.047180,0.815552,0.186920,-0.837402,-0.254211,422502344.322344,352762344.322344,2507838.827839,79.917908,1,1,1,1,1,99.000000
2025-09-24 18:44:54.365,1.677597790310293,0.1759370574461175,-0.03419357924523453,1.487752903079729,1.10289220448257,0.3182289130665287,-0.4150112374995215,1.122343425877276,1.421972791690426,0.4174162552904048,-0.006719790458185361,1.492951558132009,0.8031888087452249,1.314891424456674,-0.1766571748815188,0.938839918631837,-0.008854290103896767,1.180525663563776,-0.6055048349675911,0.4516719445716186,800.2197802197802,756.3003663003664,799.8168498168499,811.0989010989011,874.7619047619048,928.7545787545788,-0.550720,0.047180,0.815552,0.186920,-0.837402,-0.254211,422502344.322344,352762344.322344,2507838.827839,79.917908,1,1,1,1,1,99.000000
2025-09-24 18:44:54.365,1.677597790310293,0.1759370574461175,-0.03419357924523453,1.487752903079729,1.10289220448257,0.3182289130665287,-0.4150112374995215,1.122343425877276,1.421972791690426,0.4174162552904048,-0.006719790458185361,1.492951558132009,0.8031888087452249,1.314891424456674,-0.1766571748815188,0.938839918631837,-0.008854290103896767,1.180525663563776,-0.6055048349675911,0.4516719445716186,793.3699633699634,757.1062271062272,801.4285714285714,806.6666666666667,836.0805860805862,602.7838827838827,-0.550720,0.047180,0.815552,0.186920,-0.837402,-0.254211,422502344.322344,352762344.322344,2507838.827839,79.917908,1,1,1,1,1,99.000000
2025-09-24 18:44:54.365,1.677597790310293,0.1759370574461175,-0.03419357924523453,1.487752903079729,1.10289220448257,0.3182289130665287,-0.4150112374995215,1.122343425877276,1.421972791690426,0.4174162552904048,-0.006719790458185361,1.492951558132009,0.8031888087452249,1.314891424456674,-0.1766571748815188,0.938839918631837,-0.008854290103896767,1.180525663563776,-0.6055048349675911,0.4516719445716186,793.3699633699634,819.1575091575091,802.2344322344322,806.2637362637363,817.948717948718,608.8278388278388,-0.550720,0.047180,0.815552,0.186920,-0.837402,-0.254211,422502344.322344,352762344.322344,2507838.827839,79.917908,1,1,1,1,1,99.000000
2025-09-24 18:44:54.365,1.636142674166863,0.1759370574461175,-0.07456064975772782,1.47688156674883,1.061729852522258,0.3182289130665287,-0.422434818187252,1.100349221067474,1.421972791690426,0.4174162552904048,-0.01858668190708509,1.492951558132009,0.7734311065379745,1.314891424456674,-0.1893896645161024,0.9314985219559988,0.0208150760973151,1.180525663563776,-0.5956019834487872,0.4304045169179055,793.7728937728938,809.0842490842491,804.6520146520147,805.0549450549451,823.1868131868132,654.7619047619048,-0.550720,0.047180,0.815552,0.186920,-0.837402,-0.254211,422502344.322344,352762344.322344,2507838.827839,79.917908,1,1,1,1,1,99.000000
2025-09-24 18:44:54.366,1.636142674166863,0.1759370574461175,-0.07456064975772782,1.47688156674883,1.061729852522258,0.3182289130665287,-0.422434818187252,1.100349221067474,1.421972791690426,0.4174162552904048,-0.01858668190708509,1.492951558132009,0.7734311065379745,1.314891424456674,-0.1893896645161024,0.9314985219559988,0.0208150760973151,1.180525663563776,-0.5956019834487872,0.4304045169179055,793.7728937728938,788.9377289377289,807.4725274725275,805.0549450549451,796.996336996337,641.4652014652015,-0.551147,0.039062,0.815308,0.299072,-0.665436,-0.014954,422502344.322344,352694652.014652,2432893.772894,79.874451,1,1,1,1,1,99.000000
2025-09-24 18:44:54.366,1.636142674166863,0.1759370574461175,-0.07456064975772782,1.47688156674883,1.061729852522258,0.3182289130665287,-0.422434818187252,1.100349221067474,1.421972791690426,0.4174162552904048,-0.01858668190708509,1.492951558132009,0.7734311065379745,1.314891424456674,-0.1893896645161024,0.9314985219559988,0.0208150760973151,1.180525663563776,-0.5956019834487872,0.4304045169179055,799.8168498168499,819.5604395604396,805.4578754578755,810.6959706959707,876.3736263736264,712.3809523809524,-0.551147,0.039062,0.815308,0.299072,-0.665436,-0.014954,422502344.322344,352694652.014652,2432893.772894,79.874451,1,1,1,1,1,99.000000
2025-09-24 18:44:54.367,1.636142674166863,0.1759370574461175,-0.07456064975772782,1.47688156674883,1.061729852522258,0.3182289130665287,-0.422434818187252,1.100349221067474,1.421972791690426,0.4174162552904048,-0.01858668190708509,1.492951558132009,0.7734311065379745,1.314891424456674,-0.1893896645161024,0.9314985219559988,0.0208150760973151,1.180525663563776,-0.5956019834487872,0.4304045169179055,806.6666666666667,832.0512820512821,805.0549450549451,806.2637362637363,936.4102564102565,734.5421245421246,-0.551147,0.039062,0.815308,0.299072,-0.665436,-0.014954,422502344.322344,352694652.014652,2432893.772894,79.874451,1,1,1,1,1,99.000000
2025-09-24 18:44:54.367,1.636142674166863,0.1759370574461175,-0.07456064975772782,1.47688156674883,1.061729852522258,0.3182289130665287,-0.422434818187252,1.100349221067474,1.421972791690426,0.4174162552904048,-0.01858668190708509,1.492951558132009,0.7734311065379745,1.314891424456674,-0.1893896645161024,0.9314985219559988,0.0208150760973151,1.180525663563776,-0.5956019834487872,0.4304045169179055,802.6373626373627,801.4285714285714,809.0842490842491,801.8315018315019,924.7252747252747,748.2417582417582,-0.551147,0.039062,0.815308,0.299072,-0.665436,-0.014954,422502344.322344,352694652.014652,2432893.772894,79.874451,1,1,1,1,1,99.000000
2025-09-24 18:44:54.367,1.636142674166863,0.1759370574461175,-0.07456064975772782,1.47688156674883,1.061729852522258,0.3182289130665287,-0.422434818187252,1.100349221067474,1.421972791690426,0.4174162552904048,-0.01858668190708509,1.492951558132009,0.7734311065379745,1.314891424456674,-0.1893896645161024,0.9314985219559988,0.0208150760973151,1.180525663563776,-0.5956019834487872,0.4304045169179055,791.7582417582418,805.8608058608058,805.8608058608058,799.4139194139194,905.3846153846154,830.8424908424909,-0.551147,0.039062,0.815308,0.299072,-0.665436,-0.014954,422502344.322344,352694652.014652,2432893.772894,79.874451,1,1,1,1,1,99.000000
2025-09-24 18:44:54.367,1.636142674166863,0.1759370574461175,-0.07456064975772782,1.47688156674883,1.061729852522258,0.3182289130665287,-0.422434818187252,1.100349221067474,1.421972791690426,0.4174162552904048,-0.01858668190708509,1.492951558132009,0.7734311065379745,1.314891424456674,-0.1893896645161024,0.9314985219559988,0.0208150760973151,1.180525663563776,-0.5956019834487872,0.4304045169179055,783.6996336996338,832.4542124542124,803.040293040293,795.3846153846154,868.7179487179487,1020.622710622711,-0.551147,0.039062,0.815308,0.299072,-0.665436,-0.014954,422502344.322344,352694652.014652,2432893.772894,79.874451,1,1,1,1,1,99.000000
2025-09-24 18:44:54.367,1.636142674166863,0.1759370574461175,-0.07456064975772782,1.47688156674883,1.061729852522258,0.3182289130665287,-0.422434818187252,1.100349221067474,1.421972791690426,0.4174162552904048,-0.01858668190708509,1.492951558132009,0.7734311065379745,1.314891424456674,-0.1893896645161024,0.9314985219559988,0.0208150760973151,1.180525663563776,-0.5956019834487872,0.4304045169179055,788.5347985347986,810.2930402930403,807.4725274725275,798.6080586080586,810.6959706959707,1009.74358974359,-0.551147,0.039062,0.815308,0.299072,-0.665436,-0.014954,422502344.322344,352694652.014652,2432893.772894,79.874451,1,1,1,1,1,99.000000
2025-09-24 18:44:54.367,1.636142674166863,0.1759370574461175,-0.07456064975772782,1.47688156674883,1.061729852522258,0.3182289130665287,-0.422434818187252,1.100349221067474,1.421972791690426,0.4174162552904048,-0.01858668190708509,1.492951558132009,0.7734311065379745,1.314891424456674,-0.1893896645161024,0.9314985219559988,0.0208150760973151,1.180525663563776,-0.5956019834487872,0.4304045169179055,791.7582417582418,776.4468864468864,807.8754578754579,790.952380952381,836.0805860805862,889.6703296703297,-0.551147,0.039062,0.815308,0.299072,-0.665436,-0.014954,422502344.322344,352694652.014652,2432893.772894,79.874451,1,1,1,1,1,99.000000
2025-09-24 18:44:54.367,1.636142674166863,0.1759370574461175,-0.07456064975772782,1.47688156674883,1.061729852522258,0.3182289130665287,-0.422434818187252,1.100349221067474,1.421972791690426,0.4174162552904048,-0.01858668190708509,1.492951558132009,0.7734311065379745,1.314891424456674,-0.1893896645161024,0.9314985219559988,0.0208150760973151,1.180525663563776,-0.5956019834487872,0.4304045169179055,789.7435897435897,759.1208791208792,807.0695970695971,786.1172161172161,913.040293040293,695.0549450549451,-0.551147,0.039062,0.815308,0.299072,-0.665436,-0.014954,422502344.322344,352694652.014652,2432893.772894,79.874451,1,1,1,1,1,99.000000
2025-09-24 18:44:54.368,1.636142674166863,0.1759370574461175,-0.07456064975772782,1.47688156674883,1.061729852522258,0.3182289130665287,-0.422434818187252,1.100349221067474,1.421972791690426,0.4174162552904048,-0.01858668190708509,1.492951558132009,0.7734311065379745,1.314891424456674,-0.1893896645161024,0.9314985219559988,0.0208150760973151,1.180525663563776,-0.5956019834487872,0.4304045169179055,784.5054945054945,808.6813186813187,807.0695970695971,790.1465201465202,846.959706959707,756.3003663003664,-0.551147,0.039062,0.815308,0.299072,-0.665436,-0.014954,422502344.322344,352694652.014652,2432893.772894,79.874451,1,1,1,1,1,99.000000
2025-09-24 18:44:54.368,1.636142674166863,0.1759370574461175,-0.07456064975772782,1.47688156674883,1.061729852522258,0.3182289130665287,-0.422434818187252,1.100349221067474,1.421972791690426,0.4174162552904048,-0.01858668190708509,1.492951558132009,0.7734311065379745,1.314891424456674,-0.1893896645161024,0.9314985219559988,0.0208150760973151,1.180525663563776,-0.5956019834487872,0.4304045169179055,779.6703296703297,837.2893772893773,803.8461538461539,787.7289377289378,869.5238095238095,997.6556776556777,-0.551147,0.039062,0.815308,0.299072,-0.665436,-0.014954,422502344.322344,352694652.014652,2432893.772894,79.874451,1,1,1,1,1,99.000000
2025-09-24 18:44:54.368,1.636142674166863,0.1759370574461175,-0.07456064975772782,1.47688156674883,1.061729852522258,0.3182289130665287,-0.422434818187252,1.100349221067474,1.421972791690426,0.4174162552904048,-0.01858668190708509,1.492951558132009,0.7734311065379745,1.314891424456674,-0.1893896645161024,0.9314985219559988,0.0208150760973151,1.180525663563776,-0.5956019834487872,0.4304045169179055,786.9230769230769,784.9084249084249,803.4432234432235,790.5494505494506,941.6483516483516,849.3772893772895,-0.551147,0.039062,0.815308,0.299072,-0.665436,-0.014954,422502344.322344,352694652.014652,2432893.772894,79.874451,1,1,1,1,1,99.000000
2025-09-24 18:44:54.368,1.636142674166863,0.1759370574461175,-0.07456064975772782,1.47688156674883,1.061729852522258,0.3182289130665287,-0.422434818187252,1.100349221067474,1.421972791690426,0.4174162552904048,-0.01858668190708509,1.492951558132009,0.7734311065379745,1.314891424456674,-0.1893896645161024,0.9314985219559988,0.0208150760973151,1.180525663563776,-0.5956019834487872,0.4304045169179055,796.996336996337,790.1465201465202,807.4725274725275,805.0549450549451,930.3663003663004,759.1208791208792,-0.549011,0.041870,0.817566,0.201874,-1.839294,0.074768,422502344.322344,352694652.014652,2432893.772894,79.874451,1,1,1,1,1,99.000000
2025-09-24 18:44:54.368,1.636142674166863,0.1759370574461175,-0.07456064975772782,1.47688156674883,1.061729852522258,0.3182289130665287,-0.422434818187252,1.100349221067474,1.421972791690426,0.4174162552904048,-0.01858668190708509,1.492951558132009,0.7734311065379745,1.314891424456674,-0.1893896645161024,0.9314985219559988,0.0208150760973151,1.180525663563776,-0.5956019834487872,0.4304045169179055,796.1904761904763,807.0695970695971,807.8754578754579,808.2783882783883,950.1098901098901,760.3296703296703,-0.549011,0.041870,0.817566,0.201874,-1.839294,0.074768,422502344.322344,352694652.014652,2432893.772894,79.874451,1,1,1,1,1,99.000000
2025-09-24 18:44:54.368,1.636142674166863,0.1759370574461175,-0.07456064975772782,1.47688156674883,1.061729852522258,0.3182289130665287,-0.422434818187252,1.100349221067474,1.421972791690426,0.4174162552904048,-0.01858668190708509,1.492951558132009,0.7734311065379745,1.314891424456674,-0.1893896645161024,0.9314985219559988,0.0208150760973151,1.180525663563776,-0.5956019834487872,0.4304045169179055,799.0109890109891,842.9304029304029,805.8608058608058,807.4725274725275,914.6520146520147,814.3223443223443,-0.549011,0.041870,0.817566,0.201874,-1.839294,0.074768,422502344.322344,352694652.014652,2432893.772894,79.874451,1,1,1,1,1,99.000000
2025-09-24 18:44:54.369,1.636142674166863,0.1759370574461175,-0.07456064975772782,1.47688156674883,1.061729852522258,0.3182289130665287,-0.422434818187252,1.100349221067474,1.421972791690426,0.4174162552904048,-0.01858668190708509,1.492951558132009,0.7734311065379745,1.314891424456674,-0.1893896645161024,0.9314985219559988,0.0208150760973151,1.180525663563776,-0.5956019834487872,0.4304045169179055,811.9047619047619,823.5897435897436,805.0549450549451,814.7252747252747,873.956043956044,992.8205128205128,-0.549011,0.041870,0.817566,0.201874,-1.839294,0.074768,422502344.322344,352694652.014652,2432893.772894,79.874451,1,1,1,1,1,99.000000
2025-09-24 18:44:54.369,1.636142674166863,0.1759370574461175,-0.07456064975772782,1.47688156674883,1.061729852522258,0.3182289130665287,-0.422434818187252,1.100349221067474,1.421972791690426,0.4174162552904048,-0.01858668190708509,1.492951558132009,0.7734311065379745,1.314891424456674,-0.1893896645161024,0.9314985219559988,0.0208150760973151,1.180525663563776,-0.5956019834487872,0.4304045169179055,821.1721611721612,765.5677655677656,803.4432234432235,817.948717948718,850.5860805860806,792.1611721611722,-0.549011,0.041870,0.817566,0.201874,-1.839294,0.074768,422502344.322344,352694652.014652,2432893.772894,79.874451,1,1,1,1,1,99.000000
2025-09-24 18:44:54.369,1.636142674166863,0.1759370574461175,-0.07456064975772782,1.47688156674883,1.061729852522258,0.3182289130665287,-0.422434818187252,1.100349221067474,1.421972791690426,0.4174162552904048,-0.01858668190708509,1.492951558132009,0.7734311065379745,1.314891424456674,-0.1893896645161024,0.9314985219559988,0.0208150760973151,1.180525663563776,-0.5956019834487872,0.4304045169179055,813.919413919414,832.4542124542124,803.040293040293,820.7692307692308,836.4835164835165,936.4102564102565,-0.549011,0.041870,0.817566,0.201874,-1.839294,0.074768,422502344.322344,352694652.014652,2432893.772894,79.874451,1,1,1,1,1,99.000000
2025-09-24 18:44:54.369,1.636142674166863,0.1759370574461175,-0.07456064975772782,1.47688156674883,1.061729852522258,0.3182289130665287,-0.422434818187252,1.100349221067474,1.421972791690426,0.4174162552904048,-0.01858668190708509,1.492951558132009,0.7734311065379745,1.314891424456674,-0.1893896645161024,0.9314985219559988,0.0208150760973151,1.180525663563776,-0.5956019834487872,0.4304045169179055,809.4871794871796,819.96336996337,803.4432234432235,820.3663003663004,826.8131868131868,1042.783882783883,-0.549011,0.041870,0.817566,0.201874,-1.839294,0.074768,422502344.322344,352694652.014652,2432893.772894,79.874451,1,1,1,1,1,99.000000
2025-09-24 18:44:54.369,1.636142674166863,0.1759370574461175,-0.07456064975772782,1.47688156674883,1.061729852522258,0.3182289130665287,-0.422434818187252,1.100349221067474,1.421972791690426,0.4174162552904048,-0.01858668190708509,1.492951558132009,0.7734311065379745,1.314891424456674,-0.1893896645161024,0.9314985219559988,0.0208150760973151,1.180525663563776,-0.5956019834487872,0.4304045169179055,812.7106227106227,751.4652014652015,801.8315018315019,809.0842490842491,801.8315018315019,684.1758241758242,-0.549011,0.041870,0.817566,0.201874,-1.839294,0.074768,422502344.322344,352694652.014652,2432893.772894,79.874451,1,1,1,1,1,99.000000
2025-09-24 18:44:54.369,1.636142674166863,0.1759370574461175,-0.07456064975772782,1.47688156674883,1.061729852522258,0.3182289130665287,-0.422434818187252,1.100349221067474,1.421972791690426,0.4174162552904048,-0.01858668190708509,1.492951558132009,0.7734311065379745,1.314891424456674,-0.1893896645161024,0.9314985219559988,0.0208150760973151,1.180525663563776,-0.5956019834487872,0.4304045169179055,812.7106227106227,797.8021978021978,802.2344322344322,801.025641025641,836.8864468864469,646.3003663003664,-0.549011,0.041870,0.817566,0.201874,-1.839294,0.074768,422502344.322344,352694652.014652,2432893.772894,79.874451,1,1,1,1,1,99.000000
2025-09-24 18:44:54.369,1.636142674166863,0.1759370574461175,-0.07456064975772782,1.47688156674883,1.061729852522258,0.3182289130665287,-0.422434818187252,1.100349221067474,1.421972791690426,0.4174162552904048,-0.01858668190708509,1.492951558132009,0.7734311065379745,1.314891424456674,-0.1893896645161024,0.9314985219559988,0.0208150760973151,1.180525663563776,-0.5956019834487872,0.4304045169179055,817.948717948718,809.8901098901099,805.8608058608058,798.6080586080586,875.5677655677656,718.4249084249085,-0.549011,0.041870,0.817566,0.201874,-1.839294,0.074768,422502344.322344,352694652.014652,2432893.772894,79.874451,1,1,1,1,1,99.000000
2025-09-24 18:44:54.369,1.636142674166863,0.1759370574461175,-0.07456064975772782,1.47688156674883,1.061729852522258,0.3182289130665287,-0.422434818187252,1.100349221067474,1.421972791690426,0.4174162552904048,-0.01858668190708509,1.492951558132009,0.7734311065379745,1.314891424456674,-0.1893896645161024,0.9314985219559988,0.0208150760973151,1.180525663563776,-0.5956019834487872,0.4304045169179055,819.1575091575091,804.2490842490843,805.8608058608058,813.5164835164835,820.7692307692308,599.9633699633699,-0.549011,0.041870,0.817566,0.201874,-1.839294,0.074768,422502344.322344,352694652.014652,2432893.772894,79.874451,1,1,1,1,1,99.000000
2025-09-24 18:44:54.370,1.636142674166863,0.1759370574461175,-0.07456064975772782,1.47688156674883,1.061729852522258,0.3182289130665287,-0.422434818187252,1.100349221067474,1.421972791690426,0.4174162552904048,-0.01858668190708509,1.492951558132009,0.7734311065379745,1.314891424456674,-0.1893896645161024,0.9314985219559988,0.0208150760973151,1.180525663563776,-0.5956019834487872,0.4304045169179055,817.948717948718,820.7692307692308,801.8315018315019,819.96336996337,815.934065934066,633.8095238095239,-0.549011,0.041870,0.817566,0.201874,-1.839294,0.074768,422502344.322344,352694652.014652,2432893.772894,79.874451,1,1,1,1,1,99.000000
2025-09-24 18:44:54.370,1.636142674166863,0.1759370574461175,-0.07456064975772782,1.47688156674883,1.061729852522258,0.3182289130665287,-0.422434818187252,1.100349221067474,1.421972791690426,0.4174162552904048,-0.01858668190708509,1.492951558132009,0.7734311065379745,1.314891424456674,-0.1893896645161024,0.9314985219559988,0.0208150760973151,1.180525663563776,-0.5956019834487872,0.4304045169179055,814.3223443223443,834.0659340659341,798.2051282051282,805.8608058608058,905.7875457875458,850.5860805860806,-0.547546,0.044128,0.820068,0.635529,-1.786957,-0.463562,422502344.322344,352666446.886447,2509450.549451,79.833542,1,1,1,1,1,99.000000
2025-09-24 18:44:54.371,1.56846540533784,0.1759370574461175,-0.1125626649885792,1.47007362009622,0.9843269061531008,0.3182289130665287,-0.425851724114349,1.081052528407255,1.421067968558475,0.4174162552904048,-0.0280529617734258,1.492951558132009,0.7476119421326295,1.314891424456674,-0.1970661664293837,0.9357431953543206,0.0659716896135335,1.180525663563776,-0.5897481420278535,0.4095803735042888,810.2930402930403,821.5750915750916,798.6080586080586,805.8608058608058,907.8021978021978,989.5970695970697,-0.547546,0.044128,0.820068,0.635529,-1.786957,-0.463562,422502344.322344,352666446.886447,2509450.549451,79.833542,1,1,1,1,1,99.000000
2025-09-24 18:44:54.371,1.56846540533784,0.1759370574461175,-0.1125626649885792,1.47007362009622,0.9843269061531008,0.3182289130665287,-0.425851724114349,1.081052528407255,1.421067968558475,0.4174162552904048,-0.0280529617734258,1.492951558132009,0.7476119421326295,1.314891424456674,-0.1970661664293837,0.9357431953543206,0.0659716896135335,1.180525663563776,-0.5897481420278535,0.4095803735042888,805.8608058608058,773.2234432234433,797.8021978021978,805.4578754578755,877.985347985348,667.6556776556777,-0.547546,0.044128,0.820068,0.635529,-1.786957,-0.463562,422502344.322344,352666446.886447,2509450.549451,79.833542,1,1,1,1,1,99.000000
2025-09-24 18:44:54.371,1.56846540533784,0.1759370574461175,-0.1125626649885792,1.47007362009622,0.9843269061531008,0.3182289130665287,-0.425851724114349,1.081052528407255,1.421067968558475,0.4174162552904048,-0.0280529617734258,1.492951558132009,0.7476119421326295,1.314891424456674,-0.1970661664293837,0.9357431953543206,0.0659716896135335,1.180525663563776,-0.5897481420278535,0.4095803735042888,808.2783882783883,812.7106227106227,796.996336996337,797.3992673992674,912.2344322344322,672.4908424908425,-0.547546,0.044128,0.820068,0.635529,-1.786957,-0.463562,422502344.322344,352666446.886447,2509450.549451,79.833542,1,1,1,1,1,99.000000
2025-09-24 18:44:54.371,1.56846540533784,0.1759370574461175,-0.1125626649885792,1.47007362009622,0.9843269061531008,0.3182289130665287,-0.425851724114349,1.081052528407255,1.421067968558475,0.4174162552904048,-0.0280529617734258,1.492951558132009,0.7476119421326295,1.314891424456674,-0.1970661664293837,0.9357431953543206,0.0659716896135335,1.180525663563776,-0.5897481420278535,0.4095803735042888,812.7106227106227,819.5604395604396,797.3992673992674,796.1904761904763,923.919413919414,834.0659340659341,-0.547546,0.044128,0.820068,0.635529,-1.786957,-0.463562,422502344.322344,352666446.886447,2509450.549451,79.833542,1,1,1,1,1,99.000000
2025-09-24 18:44:54.372,1.56846540533784,0.1759370574461175,-0.1125626649885792,1.47007362009622,0.9843269061531008,0.3182289130665287,-0.425851724114349,1.081052528407255,1.421067968558475,0.4174162552904048,-0.0280529617734258,1.492951558132009,0.7476119421326295,1.314891424456674,-0.1970661664293837,0.9357431953543206,0.0659716896135335,1.180525663563776,-0.5897481420278535,0.4095803735042888,811.5018315018315,844.5421245421246,800.6227106227107,795.7875457875458,932.3809523809524,1158.021978021978,-0.547546,0.044128,0.820068,0.635529,-1.786957,-0.463562,422502344.322344,352666446.886447,2509450.549451,79.833542,1,1,1,1,1,99.000000
2025-09-24 18:44:54.372,1.56846540533784,0.1759370574461175,-0.1125626649885792,1.47007362009622,0.9843269061531008,0.3182289130665287,-0.425851724114349,1.081052528407255,1.421067968558475,0.4174162552904048,-0.0280529617734258,1.492951558132009,0.7476119421326295,1.314891424456674,-0.1970661664293837,0.9357431953543206,0.0659716896135335,1.180525663563776,-0.5897481420278535,0.4095803735042888,808.2783882783883,794.981684981685,798.2051282051282,792.1611721611722,907.3992673992674,1283.333333333333,-0.547546,0.044128,0.820068,0.635529,-1.786957,-0.463562,422502344.322344,352666446.886447,2509450.549451,79.833542,1,1,1,1,1,99.000000
2025-09-24 18:44:54.372,1.56846540533784,0.1759370574461175,-0.1125626649885792,1.47007362009622,0.9843269061531008,0.3182289130665287,-0.425851724114349,1.081052528407255,1.421067968558475,0.4174162552904048,-0.0280529617734258,1.492951558132009,0.7476119421326295,1.314891424456674,-0.1970661664293837,0.9357431953543206,0.0659716896135335,1.180525663563776,-0.5897481420278535,0.4095803735042888,801.4285714285714,729.3040293040293,796.996336996337,797.8021978021978,859.8534798534798,857.4358974358975,-0.547546,0.044128,0.820068,0.635529,-1.786957,-0.463562,422502344.322344,352666446.886447,2509450.549451,79.833542,1,1,1,1,1,99.000000
2025-09-24 18:44:54.372,1.56846540533784,0.1759370574461175,-0.1125626649885792,1.47007362009622,0.9843269061531008,0.3182289130665287,-0.425851724114349,1.081052528407255,1.421067968558475,0.4174162552904048,-0.0280529617734258,1.492951558132009,0.7476119421326295,1.314891424456674,-0.1970661664293837,0.9357431953543206,0.0659716896135335,1.180525663563776,-0.5897481420278535,0.4095803735042888,791.3553113553114,784.9084249084249,800.2197802197802,808.2783882783883,926.3369963369963,762.7472527472528,-0.547546,0.044128,0.820068,0.635529,-1.786957,-0.463562,422502344.322344,352666446.886447,2509450.549451,79.833542,1,1,1,1,1,99.000000
2025-09-24 18:44:54.372,1.56846540533784,0.1759370574461175,-0.1125626649885792,1.47007362009622,0.9843269061531008,0.3182289130665287,-0.425851724114349,1.081052528407255,1.421067968558475,0.4174162552904048,-0.0280529617734258,1.492951558132009,0.7476119421326295,1.314891424456674,-0.1970661664293837,0.9357431953543206,0.0659716896135335,1.180525663563776,-0.5897481420278535,0.4095803735042888,785.3113553113553,783.6996336996338,796.1904761904763,811.9047619047619,908.2051282051282,736.5567765567765,-0.547546,0.044128,0.820068,0.635529,-1.786957,-0.463562,422502344.322344,352666446.886447,2509450.549451,79.833542,1,1,1,1,1,99.000000
2025-09-24 18:44:54.372,1.56846540533784,0.1759370574461175,-0.1125626649885792,1.47007362009622,0.9843269061531008,0.3182289130665287,-0.425851724114349,1.081052528407255,1.421067968558475,0.4174162552904048,-0.0280529617734258,1.492951558132009,0.7476119421326295,1.314891424456674,-0.1970661664293837,0.9357431953543206,0.0659716896135335,1.180525663563776,-0.5897481420278535,0.4095803735042888,785.3113553113553,779.6703296703297,798.6080586080586,831.2454212454213,891.6849816849817,612.0512820512821,-0.547546,0.044128,0.820068,0.635529,-1.786957,-0.463562,422502344.322344,352666446.886447,2509450.549451,79.833542,1,1,1,1,1,99.000000
2025-09-24 18:44:54.372,1.56846540533784,0.1759370574461175,-0.1125626649885792,1.47007362009622,0.9843269061531008,0.3182289130665287,-0.425851724114349,1.081052528407255,1.421067968558475,0.4174162552904048,-0.0280529617734258,1.492951558132009,0.7476119421326295,1.314891424456674,-0.1970661664293837,0.9357431953543206,0.0659716896135335,1.180525663563776,-0.5897481420278535,0.4095803735042888,789.3406593406594,809.4871794871796,800.2197802197802,832.4542124542124,876.3736263736264,712.7838827838829,-0.547546,0.044128,0.820068,0.635529,-1.786957,-0.463562,422502344.322344,352666446.886447,2509450.549451,79.833542,1,1,1,1,1,99.000000
2025-09-24 18:44:54.372,1.56846540533784,0.1759370574461175,-0.1125626649885792,1.47007362009622,0.9843269061531008,0.3182289130665287,-0.425851724114349,1.081052528407255,1.421067968558475,0.4174162552904048,-0.0280529617734258,1.492951558132009,0.7476119421326295,1.314891424456674,-0.1970661664293837,0.9357431953543206,0.0659716896135335,1.180525663563776,-0.5897481420278535,0.4095803735042888,789.7435897435897,788.5347985347986,798.2051282051282,821.978021978022,846.5567765567765,727.6923076923077,-0.547546,0.044128,0.820068,0.635529,-1.786957,-0.463562,422502344.322344,352666446.886447,2509450.549451,79.833542,1,1,1,1,1,99.000000
2025-09-24 18:44:54.373,1.56846540533784,0.1759370574461175,-0.1125626649885792,1.47007362009622,0.9843269061531008,0.3182289130665287,-0.425851724114349,1.081052528407255,1.421067968558475,0.4174162552904048,-0.0280529617734258,1.492951558132009,0.7476119421326295,1.314891424456674,-0.1970661664293837,0.9357431953543206,0.0659716896135335,1.180525663563776,-0.5897481420278535,0.4095803735042888,791.3553113553114,796.1904761904763,797.8021978021978,821.5750915750916,875.1648351648352,711.978021978022,-0.547546,0.044128,0.820068,0.635529,-1.786957,-0.463562,422502344.322344,352666446.886447,2509450.549451,79.833542,1,1,1,1,1,99.000000
2025-09-24 18:44:54.373,1.56846540533784,0.1759370574461175,-0.1125626649885792,1.47007362009622,0.9843269061531008,0.3182289130665287,-0.425851724114349,1.081052528407255,1.421067968558475,0.4174162552904048,-0.0280529617734258,1.492951558132009,0.7476119421326295,1.314891424456674,-0.1970661664293837,0.9357431953543206,0.0659716896135335,1.180525663563776,-0.5897481420278535,0.4095803735042888,799.0109890109891,844.9450549450549,802.6373626373627,823.992673992674,908.6080586080586,1028.681318681319,-0.547546,0.044128,0.820068,0.635529,-1.786957,-0.463562,422502344.322344,352666446.886447,2509450.549451,79.833542,1,1,1,1,1,99.000000
2025-09-24 18:44:54.373,1.56846540533784,0.1759370574461175,-0.1125626649885792,1.47007362009622,0.9843269061531008,0.3182289130665287,-0.425851724114349,1.081052528407255,1.421067968558475,0.4174162552904048,-0.0280529617734258,1.492951558132009,0.7476119421326295,1.314891424456674,-0.1970661664293837,0.9357431953543206,0.0659716896135335,1.180525663563776,-0.5897481420278535,0.4095803735042888,797.8021978021978,755.4945054945055,803.8461538461539,819.96336996337,850.1831501831502,906.996336996337,-0.547546,0.044128,0.820068,0.635529,-1.786957,-0.463562,422502344.322344,352666446.886447,2509450.549451,79.833542,1,1,1,1,1,99.000000
2025-09-24 18:44:54.373,1.56846540533784,0.1759370574461175,-0.1125626649885792,1.47007362009622,0.9843269061531008,0.3182289130665287,-0.425851724114349,1.081052528407255,1.421067968558475,0.4174162552904048,-0.0280529617734258,1.492951558132009,0.7476119421326295,1.314891424456674,-0.1970661664293837,0.9357431953543206,0.0659716896135335,1.180525663563776,-0.5897481420278535,0.4095803735042888,799.4139194139194,784.5054945054945,800.6227106227107,809.8901098901099,805.4578754578755,794.1758241758242,-0.547546,0.044128,0.820068,0.635529,-1.786957,-0.463562,422502344.322344,352666446.886447,2509450.549451,79.833542,1,1,1,1,1,99.000000
2025-09-24 18:44:54.373,1.56846540533784,0.1759370574461175,-0.1125626649885792,1.47007362009622,0.9843269061531008,0.3182289130665287,-0.425851724114349,1.081052528407255,1.421067968558475,0.4174162552904048,-0.0280529617734258,1.492951558132009,0.7476119421326295,1.314891424456674,-0.1970661664293837,0.9357431953543206,0.0659716896135335,1.180525663563776,-0.5897481420278535,0.4095803735042888,806.2637362637363,830.0366300366301,796.996336996337,809.4871794871796,801.4285714285714,1122.564102564103,-0.547546,0.044128,0.820068,0.635529,-1.786957,-0.463562,422502344.322344,352666446.886447,2509450.549451,79.833542,1,1,1,1,1,99.000000
2025-09-24 18:44:54.373,1.56846540533784,0.1759370574461175,-0.1125626649885792,1.47007362009622,0.9843269061531008,0.3182289130665287,-0.425851724114349,1.081052528407255,1.421067968558475,0.4174162552904048,-0.0280529617734258,1.492951558132009,0.7476119421326295,1.314891424456674,-0.1970661664293837,0.9357431953543206,0.0659716896135335,1.180525663563776,-0.5897481420278535,0.4095803735042888,804.6520146520147,770.4029304029305,797.3992673992674,808.6813186813187,840.5128205128206,1072.197802197802,-0.547546,0.044128,0.820068,0.635529,-1.786957,-0.463562,422502344.322344,352666446.886447,2509450.549451,79.833542,1,1,1,1,1,99.000000
2025-09-24 18:44:54.373,1.56846540533784,0.1759370574461175,-0.1125626649885792,1.47007362009622,0.9843269061531008,0.3182289130665287,-0.425851724114349,1.081052528407255,1.421067968558475,0.4174162552904048,-0.0280529617734258,1.492951558132009,0.7476119421326295,1.314891424456674,-0.1970661664293837,0.9357431953543206,0.0659716896135335,1.180525663563776,-0.5897481420278535,0.4095803735042888,798.2051282051282,751.4652014652015,796.996336996337,799.4139194139194,884.0293040293041,833.6630036630037,-0.547546,0.044128,0.820068,0.635529,-1.786957,-0.463562,422502344.322344,352666446.886447,2509450.549451,79.833542,1,1,1,1,1,99.000000
2025-09-24 18:44:54.373,1.56846540533784,0.1759370574461175,-0.1125626649885792,1.47007362009622,0.9843269061531008,0.3182289130665287,-0.425851724114349,1.081052528407255,1.421067968558475,0.4174162552904048,-0.0280529617734258,1.492951558132009,0.7476119421326295,1.314891424456674,-0.1970661664293837,0.9357431953543206,0.0659716896135335,1.180525663563776,-0.5897481420278535,0.4095803735042888,803.4432234432235,784.1025641025641,798.2051282051282,801.8315018315019,852.1978021978023,745.4212454212454,-0.547546,0.044128,0.820068,0.635529,-1.786957,-0.463562,422502344.322344,352666446.886447,2509450.549451,79.833542,1,1,1,1,1,99.000000
2025-09-24 18:44:54.373,1.56846540533784,0.1759370574461175,-0.1125626649885792,1.47007362009622,0.9843269061531008,0.3182289130665287,-0.425851724114349,1.081052528407255,1.421067968558475,0.4174162552904048,-0.0280529617734258,1.492951558132009,0.7476119421326295,1.314891424456674,-0.1970661664293837,0.9357431953543206,0.0659716896135335,1.180525663563776,-0.5897481420278535,0.4095803735042888,804.6520146520147,791.7582417582418,801.025641025641,800.2197802197802,853.8095238095239,696.6666666666667,-0.547546,0.044128,0.820068,0.635529,-1.786957,-0.463562,422502344.322344,352666446.886447,2509450.549451,79.833542,1,1,1,1,1,99.000000
2025-09-24 18:44:54.374,1.56846540533784,0.1759370574461175,-0.1125626649885792,1.47007362009622,0.9843269061531008,0.3182289130665287,-0.425851724114349,1.081052528407255,1.421067968558475,0.4174162552904048,-0.0280529617734258,1.492951558132009,0.7476119421326295,1.314891424456674,-0.1970661664293837,0.9357431953543206,0.0659716896135335,1.180525663563776,-0.5897481420278535,0.4095803735042888,796.996336996337,793.3699633699634,801.4285714285714,796.1904761904763,853.8095238095239,585.4578754578755,-0.547546,0.044128,0.820068,0.635529,-1.786957,-0.463562,422502344.322344,352666446.886447,2509450.549451,79.833542,1,1,1,1,1,99.000000
2025-09-24 18:44:54.374,1.56846540533784,0.1759370574461175,-0.1125626649885792,1.47007362009622,0.9843269061531008,0.3182289130665287,-0.425851724114349,1.081052528407255,1.421067968558475,0.4174162552904048,-0.0280529617734258,1.492951558132009,0.7476119421326295,1.314891424456674,-0.1970661664293837,0.9357431953543206,0.0659716896135335,1.180525663563776,-0.5897481420278535,0.4095803735042888,800.6227106227107,806.2637362637363,801.025641025641,800.6227106227107,811.0989010989011,625.3479853479854,-0.547546,0.044128,0.820068,0.635529,-1.786957,-0.463562,422502344.322344,352666446.886447,2509450.549451,79.833542,1,1,1,1,1,99.000000
2025-09-24 18:44:54.374,1.56846540533784,0.1759370574461175,-0.1125626649885792,1.47007362009622,0.9843269061531008,0.3182289130665287,-0.425851724114349,1.081052528407255,1.421067968558475,0.4174162552904048,-0.0280529617734258,1.492951558132009,0.7476119421326295,1.314891424456674,-0.1970661664293837,0.9357431953543206,0.0659716896135335,1.180525663563776,-0.5897481420278535,0.4095803735042888,800.6227106227107,797.8021978021978,800.6227106227107,804.2490842490843,829.2307692307693,693.4432234432235,-0.545654,0.040405,0.823364,0.254211,-0.949554,-0.037384,422502344.322344,352807472.527472,2507032.967033,79.795013,1,1,1,1,1,99.000000
2025-09-24 18:44:54.374,1.56846540533784,0.1759370574461175,-0.1125626649885792,1.47007362009622,0.9843269061531008,0.3182289130665287,-0.425851724114349,1.081052528407255,1.421067968558475,0.4174162552904048,-0.0280529617734258,1.492951558132009,0.7476119421326295,1.314891424456674,-0.1970661664293837,0.9357431953543206,0.0659716896135335,1.180525663563776,-0.5897481420278535,0.4095803735042888,791.7582417582418,799.0109890109891,800.6227106227107,802.6373626373627,851.7948717948718,701.5018315018315,-0.545654,0.040405,0.823364,0.254211,-0.949554,-0.037384,422502344.322344,352807472.527472,2507032.967033,79.795013,1,1,1,1,1,99.000000
2025-09-24 18:44:54.374,1.56846540533784,0.1759370574461175,-0.1125626649885792,1.47007362009622,0.9843269061531008,0.3182289130665287,-0.425851724114349,1.081052528407255,1.421067968558475,0.4174162552904048,-0.0280529617734258,1.492951558132009,0.7476119421326295,1.314891424456674,-0.1970661664293837,0.9357431953543206,0.0659716896135335,1.180525663563776,-0.5897481420278535,0.4095803735042888,793.3699633699634,811.9047619047619,803.8461538461539,800.2197802197802,889.6703296703297,701.5018315018315,-0.545654,0.040405,0.823364,0.254211,-0.949554,-0.037384,422502344.322344,352807472.527472,2507032.967033,79.795013,1,1,1,1,1,99.000000
2025-09-24 18:44:54.375,1.466339243550201,0.1759370574461175,-0.1391332232364587,1.459507539563598,0.8558027419270112,0.3182289130665287,-0.426327854304984,1.066988781364747,1.404667582337523,0.4174162552904048,-0.05069516516481263,1.492951558132009,0.7314466851596354,1.314891424456674,-0.1967198365906312,0.9468066030327691,0.1070699152706105,1.180525663563776,-0.5897498677778813,0.3896861372165348,796.996336996337,793.3699633699634,807.4725274725275,802.6373626373627,907.8021978021978,731.3186813186813,-0.545654,0.040405,0.823364,0.254211,-0.949554,-0.037384,422502344.322344,352807472.527472,2507032.967033,79.795013,1,1,1,1,1,99.000000
2025-09-24 18:44:54.375,1.466339243550201,0.1759370574461175,-0.1391332232364587,1.459507539563598,0.8558027419270112,0.3182289130665287,-0.426327854304984,1.066988781364747,1.404667582337523,0.4174162552904048,-0.05069516516481263,1.492951558132009,0.7314466851596354,1.314891424456674,-0.1967198365906312,0.9468066030327691,0.1070699152706105,1.180525663563776,-0.5897498677778813,0.3896861372165348,792.1611721611722,807.0695970695971,804.2490842490843,807.8754578754579,869.1208791208792,810.2930402930403,-0.545654,0.040405,0.823364,0.254211,-0.949554,-0.037384,422502344.322344,352807472.527472,2507032.967033,79.795013,1,1,1,1,1,99.000000
2025-09-24 18:44:54.375,1.466339243550201,0.1759370574461175,-0.1391332232364587,1.459507539563598,0.8558027419270112,0.3182289130665287,-0.426327854304984,1.066988781364747,1.404667582337523,0.4174162552904048,-0.05069516516481263,1.492951558132009,0.7314466851596354,1.314891424456674,-0.1967198365906312,0.9468066030327691,0.1070699152706105,1.180525663563776,-0.5897498677778813,0.3896861372165348,790.1465201465202,841.3186813186813,801.4285714285714,805.4578754578755,877.985347985348,1048.827838827839,-0.545654,0.040405,0.823364,0.254211,-0.949554,-0.037384,422502344.322344,352807472.527472,2507032.967033,79.795013,1,1,1,1,1,99.000000
2025-09-24 18:44:54.375,1.466339243550201,0.1759370574461175,-0.1391332232364587,1.459507539563598,0.8558027419270112,0.3182289130665287,-0.426327854304984,1.066988781364747,1.404667582337523,0.4174162552904048,-0.05069516516481263,1.492951558132009,0.7314466851596354,1.314891424456674,-0.1967198365906312,0.9468066030327691,0.1070699152706105,1.180525663563776,-0.5897498677778813,0.3896861372165348,786.1172161172161,801.4285714285714,801.4285714285714,800.2197802197802,882.4175824175825,1002.087912087912,-0.545654,0.040405,0.823364,0.254211,-0.949554,-0.037384,422502344.322344,352807472.527472,2507032.967033,79.795013,1,1,1,1,1,99.000000
2025-09-24 18:44:54.375,1.466339243550201,0.1759370574461175,-0.1391332232364587,1.459507539563598,0.8558027419270112,0.3182289130665287,-0.426327854304984,1.066988781364747,1.404667582337523,0.4174162552904048,-0.05069516516481263,1.492951558132009,0.7314466851596354,1.314891424456674,-0.1967198365906312,0.9468066030327691,0.1070699152706105,1.180525663563776,-0.5897498677778813,0.3896861372165348,784.1025641025641,768.3882783882784,801.4285714285714,804.6520146520147,828.8278388278388,865.0915750915751,-0.545654,0.040405,0.823364,0.254211,-0.949554,-0.037384,422502344.322344,352807472.527472,2507032.967033,79.795013,1,1,1,1,1,99.000000
2025-09-24 18:44:54.376,1.466339243550201,0.1759370574461175,-0.1391332232364587,1.459507539563598,0.8558027419270112,0.3182289130665287,-0.426327854304984,1.066988781364747,1.404667582337523,0.4174162552904048,-0.05069516516481263,1.492951558132009,0.7314466851596354,1.314891424456674,-0.1967198365906312,0.9468066030327691,0.1070699152706105,1.180525663563776,-0.5897498677778813,0.3896861372165348,785.7142857142858,793.7728937728938,799.4139194139194,801.4285714285714,837.6923076923077,944.0659340659341,-0.545654,0.040405,0.823364,0.254211,-0.949554,-0.037384,422502344.322344,352807472.527472,2507032.967033,79.795013,1,1,1,1,1,99.000000
2025-09-24 18:44:54.376,1.466339243550201,0.1759370574461175,-0.1391332232364587,1.459507539563598,0.8558027419270112,0.3182289130665287,-0.426327854304984,1.066988781364747,1.404667582337523,0.4174162552904048,-0.05069516516481263,1.492951558132009,0.7314466851596354,1.314891424456674,-0.1967198365906312,0.9468066030327691,0.1070699152706105,1.180525663563776,-0.5897498677778813,0.3896861372165348,790.1465201465202,770.8058608058608,797.3992673992674,807.4725274725275,901.7582417582418,791.7582417582418,-0.545654,0.040405,0.823364,0.254211,-0.949554,-0.037384,422502344.322344,352807472.527472,2507032.967033,79.795013,1,1,1,1,1,99.000000
2025-09-24 18:44:54.376,1.466339243550201,0.1759370574461175,-0.1391332232364587,1.459507539563598,0.8558027419270112,0.3182289130665287,-0.426327854304984,1.066988781364747,1.404667582337523,0.4174162552904048,-0.05069516516481263,1.492951558132009,0.7314466851596354,1.314891424456674,-0.1967198365906312,0.9468066030327691,0.1070699152706105,1.180525663563776,-0.5897498677778813,0.3896861372165348,790.952380952381,774.8351648351648,797.3992673992674,813.1135531135532,872.3443223443223,564.1025641025641,-0.545654,0.040405,0.823364,0.254211,-0.949554,-0.037384,422502344.322344,352807472.527472,2507032.967033,79.795013,1,1,1,1,1,99.000000
2025-09-24 18:44:54.376,1.466339243550201,0.1759370574461175,-0.1391332232364587,1.459507539563598,0.8558027419270112,0.3182289130665287,-0.426327854304984,1.066988781364747,1.404667582337523,0.4174162552904048,-0.05069516516481263,1.492951558132009,0.7314466851596354,1.314891424456674,-0.1967198365906312,0.9468066030327691,0.1070699152706105,1.180525663563776,-0.5897498677778813,0.3896861372165348,795.3846153846154,813.5164835164835,799.0109890109891,804.6520146520147,864.2857142857143,712.3809523809524,-0.545654,0.040405,0.823364,0.254211,-0.949554,-0.037384,422502344.322344,352807472.527472,2507032.967033,79.795013,1,1,1,1,1,99.000000
2025-09-24 18:44:54.376,1.466339243550201,0.1759370574461175,-0.1391332232364587,1.459507539563598,0.8558027419270112,0.3182289130665287,-0.426327854304984,1.066988781364747,1.404667582337523,0.4174162552904048,-0.05069516516481263,1.492951558132009,0.7314466851596354,1.314891424456674,-0.1967198365906312,0.9468066030327691,0.1070699152706105,1.180525663563776,-0.5897498677778813,0.3896861372165348,796.996336996337,793.7728937728938,797.3992673992674,805.4578754578755,919.4871794871796,789.7435897435897,-0.545715,0.042908,0.817871,-0.089722,-0.695343,0.142059,422502344.322344,352807472.527472,2507032.967033,79.795013,1,1,1,1,1,99.000000
2025-09-24 18:44:54.376,1.466339243550201,0.1759370574461175,-0.1391332232364587,1.459507539563598,0.8558027419270112,0.3182289130665287,-0.426327854304984,1.066988781364747,1.404667582337523,0.4174162552904048,-0.05069516516481263,1.492951558132009,0.7314466851596354,1.314891424456674,-0.1967198365906312,0.9468066030327691,0.1070699152706105,1.180525663563776,-0.5897498677778813,0.3896861372165348,794.981684981685,801.025641025641,800.2197802197802,809.0842490842491,902.1611721611722,772.8205128205128,-0.545715,0.042908,0.817871,-0.089722,-0.695343,0.142059,422502344.322344,352807472.527472,2507032.967033,79.795013,1,1,1,1,1,99.000000
2025-09-24 18:44:54.376,1.466339243550201,0.1759370574461175,-0.1391332232364587,1.459507539563598,0.8558027419270112,0.3182289130665287,-0.426327854304984,1.066988781364747,1.404667582337523,0.4174162552904048,-0.05069516516481263,1.492951558132009,0.7314466851596354,1.314891424456674,-0.1967198365906312,0.9468066030327691,0.1070699152706105,1.180525663563776,-0.5897498677778813,0.3896861372165348,796.996336996337,840.5128205128206,806.6666666666667,811.9047619047619,859.8534798534798,932.3809523809524,-0.545715,0.042908,0.817871,-0.089722,-0.695343,0.142059,422502344.322344,352807472.527472,2507032.967033,79.795013,1,1,1,1,1,99.000000
2025-09-24 18:44:54.376,1.466339243550201,0.1759370574461175,-0.1391332232364587,1.459507539563598,0.8558027419270112,0.3182289130665287,-0.426327854304984,1.066988781364747,1.404667582337523,0.4174162552904048,-0.05069516516481263,1.492951558132009,0.7314466851596354,1.314891424456674,-0.1967198365906312,0.9468066030327691,0.1070699152706105,1.180525663563776,-0.5897498677778813,0.3896861372165348,801.4285714285714,787.7289377289378,808.6813186813187,815.934065934066,812.3076923076924,929.1575091575091,-0.545715,0.042908,0.817871,-0.089722,-0.695343,0.142059,422502344.322344,352807472.527472,2507032.967033,79.795013,1,1,1,1,1,99.000000
2025-09-24 18:44:54.376,1.466339243550201,0.1759370574461175,-0.1391332232364587,1.459507539563598,0.8558027419270112,0.3182289130665287,-0.426327854304984,1.066988781364747,1.404667582337523,0.4174162552904048,-0.05069516516481263,1.492951558132009,0.7314466851596354,1.314891424456674,-0.1967198365906312,0.9468066030327691,0.1070699152706105,1.180525663563776,-0.5897498677778813,0.3896861372165348,799.0109890109891,772.8205128205128,801.8315018315019,815.934065934066,813.919413919414,802.2344322344322,-0.545715,0.042908,0.817871,-0.089722,-0.695343,0.142059,422502344.322344,352807472.527472,2507032.967033,79.795013,1,1,1,1,1,99.000000
2025-09-24 18:44:54.376,1.466339243550201,0.1759370574461175,-0.1391332232364587,1.459507539563598,0.8558027419270112,0.3182289130665287,-0.426327854304984,1.066988781364747,1.404667582337523,0.4174162552904048,-0.05069516516481263,1.492951558132009,0.7314466851596354,1.314891424456674,-0.1967198365906312,0.9468066030327691,0.1070699152706105,1.180525663563776,-0.5897498677778813,0.3896861372165348,796.1904761904763,821.1721611721612,800.6227106227107,808.6813186813187,817.1428571428571,995.6410256410256,-0.545715,0.042908,0.817871,-0.089722,-0.695343,0.142059,422502344.322344,352807472.527472,2507032.967033,79.795013,1,1,1,1,1,99.000000
2025-09-24 18:44:54.377,1.466339243550201,0.1759370574461175,-0.1391332232364587,1.459507539563598,0.8558027419270112,0.3182289130665287,-0.426327854304984,1.066988781364747,1.404667582337523,0.4174162552904048,-0.05069516516481263,1.492951558132009,0.7314466851596354,1.314891424456674,-0.1967198365906312,0.9468066030327691,0.1070699152706105,1.180525663563776,-0.5897498677778813,0.3896861372165348,799.8168498168499,790.5494505494506,799.8168498168499,806.6666666666667,769.1941391941392,978.7179487179487,-0.545715,0.042908,0.817871,-0.089722,-0.695343,0.142059,422502344.322344,352807472.527472,2507032.967033,79.795013,1,1,1,1,1,99.000000
2025-09-24 18:44:54.377,1.466339243550201,0.1759370574461175,-0.1391332232364587,1.459507539563598,0.8558027419270112,0.3182289130665287,-0.426327854304984,1.066988781364747,1.404667582337523,0.4174162552904048,-0.05069516516481263,1.492951558132009,0.7314466851596354,1.314891424456674,-0.1967198365906312,0.9468066030327691,0.1070699152706105,1.180525663563776,-0.5897498677778813,0.3896861372165348,801.4285714285714,767.1794871794872,799.4139194139194,809.4871794871796,779.2673992673992,774.8351648351648,-0.545715,0.042908,0.817871,-0.089722,-0.695343,0.142059,422502344.322344,352807472.527472,2507032.967033,79.795013,1,1,1,1,1,99.000000
2025-09-24 18:44:54.377,1.466339243550201,0.1759370574461175,-0.1391332232364587,1.459507539563598,0.8558027419270112,0.3182289130665287,-0.426327854304984,1.066988781364747,1.404667582337523,0.4174162552904048,-0.05069516516481263,1.492951558132009,0.7314466851596354,1.314891424456674,-0.1967198365906312,0.9468066030327691,0.1070699152706105,1.180525663563776,-0.5897498677778813,0.3896861372165348,801.4285714285714,788.9377289377289,801.025641025641,807.0695970695971,848.974358974359,698.6813186813187,-0.545715,0.042908,0.817871,-0.089722,-0.695343,0.142059,422502344.322344,352807472.527472,2507032.967033,79.795013,1,1,1,1,1,99.000000
2025-09-24 18:44:54.377,1.466339243550201,0.1759370574461175,-0.1391332232364587,1.459507539563598,0.8558027419270112,0.3182289130665287,-0.426327854304984,1.066988781364747,1.404667582337523,0.4174162552904048,-0.05069516516481263,1.492951558132009,0.7314466851596354,1.314891424456674,-0.1967198365906312,0.9468066030327691,0.1070699152706105,1.180525663563776,-0.5897498677778813,0.3896861372165348,801.025641025641,785.3113553113553,797.8021978021978,806.2637362637363,774.8351648351648,564.5054945054945,-0.545715,0.042908,0.817871,-0.089722,-0.695343,0.142059,422502344.322344,352807472.527472,2507032.967033,79.795013,1,1,1,1,1,99.000000
2025-09-24 18:44:54.377,1.466339243550201,0.1759370574461175,-0.1391332232364587,1.459507539563598,0.8558027419270112,0.3182289130665287,-0.426327854304984,1.066988781364747,1.404667582337523,0.4174162552904048,-0.05069516516481263,1.492951558132009,0.7314466851596354,1.314891424456674,-0.1967198365906312,0.9468066030327691,0.1070699152706105,1.180525663563776,-0.5897498677778813,0.3896861372165348,804.6520146520147,818.3516483516484,801.025641025641,809.4871794871796,775.6410256410256,558.0586080586081,-0.545715,0.042908,0.817871,-0.089722,-0.695343,0.142059,422502344.322344,352807472.527472,2507032.967033,79.795013,1,1,1,1,1,99.000000
2025-09-24 18:44:54.377,1.466339243550201,0.1759370574461175,-0.1391332232364587,1.459507539563598,0.8558027419270112,0.3182289130665287,-0.426327854304984,1.066988781364747,1.404667582337523,0.4174162552904048,-0.05069516516481263,1.492951558132009,0.7314466851596354,1.314891424456674,-0.1967198365906312,0.9468066030327691,0.1070699152706105,1.180525663563776,-0.5897498677778813,0.3896861372165348,804.2490842490843,860.2564102564103,800.6227106227107,807.8754578754579,854.2124542124542,907.3992673992674,-0.545715,0.042908,0.817871,-0.089722,-0.695343,0.142059,422502344.322344,352807472.527472,2507032.967033,79.795013,1,1,1,1,1,99.000000
2025-09-24 18:44:54.399,1.466339243550201,0.1759370574461175,-0.1391332232364587,1.459507539563598,0.8558027419270112,0.3182289130665287,-0.426327854304984,1.066988781364747,1.404667582337523,0.4174162552904048,-0.05069516516481263,1.492951558132009,0.7314466851596354,1.314891424456674,-0.1967198365906312,0.9468066030327691,0.1070699152706105,1.180525663563776,-0.5897498677778813,0.3896861372165348,797.8021978021978,782.4908424908425,797.3992673992674,798.6080586080586,833.2600732600733,854.6153846153846,-0.552673,0.044861,0.821411,0.037384,-0.829926,-0.441132,422502344.322344,352772820.512820,2450622.710623,79.758751,1,1,1,1,1,99.000000
2025-09-24 18:44:54.399,1.466339243550201,0.1759370574461175,-0.1391332232364587,1.459507539563598,0.8558027419270112,0.3182289130665287,-0.426327854304984,1.066988781364747,1.404667582337523,0.4174162552904048,-0.05069516516481263,1.492951558132009,0.7314466851596354,1.314891424456674,-0.1967198365906312,0.9468066030327691,0.1070699152706105,1.180525663563776,-0.5897498677778813,0.3896861372165348,792.1611721611722,772.014652014652,800.2197802197802,794.981684981685,828.8278388278388,637.8388278388279,-0.552673,0.044861,0.821411,0.037384,-0.829926,-0.441132,422502344.322344,352772820.512820,2450622.710623,79.758751,1,1,1,1,1,99.000000
2025-09-24 18:44:54.399,1.466339243550201,0.1759370574461175,-0.1391332232364587,1.459507539563598,0.8558027419270112,0.3182289130665287,-0.426327854304984,1.066988781364747,1.404667582337523,0.4174162552904048,-0.05069516516481263,1.492951558132009,0.7314466851596354,1.314891424456674,-0.1967198365906312,0.9468066030327691,0.1070699152706105,1.180525663563776,-0.5897498677778813,0.3896861372165348,792.967032967033,819.5604395604396,799.8168498168499,802.2344322344322,895.3113553113553,690.6227106227107,-0.552673,0.044861,0.821411,0.037384,-0.829926,-0.441132,422502344.322344,352772820.512820,2450622.710623,79.758751,1,1,1,1,1,99.000000
2025-09-24 18:44:54.399,1.466339243550201,0.1759370574461175,-0.1391332232364587,1.459507539563598,0.8558027419270112,0.3182289130665287,-0.426327854304984,1.066988781364747,1.404667582337523,0.4174162552904048,-0.05069516516481263,1.492951558132009,0.7314466851596354,1.314891424456674,-0.1967198365906312,0.9468066030327691,0.1070699152706105,1.180525663563776,-0.5897498677778813,0.3896861372165348,796.5934065934066,799.4139194139194,799.4139194139194,799.4139194139194,880.4029304029305,716.8131868131868,-0.552673,0.044861,0.821411,0.037384,-0.829926,-0.441132,422502344.322344,352772820.512820,2450622.710623,79.758751,1,1,1,1,1,99.000000
2025-09-24 18:44:54.400,1.466339243550201,0.1759370574461175,-0.1391332232364587,1.459507539563598,0.8558027419270112,0.3182289130665287,-0.426327854304984,1.066988781364747,1.404667582337523,0.4174162552904048,-0.05069516516481263,1.492951558132009,0.7314466851596354,1.314891424456674,-0.1967198365906312,0.9468066030327691,0.1070699152706105,1.180525663563776,-0.5897498677778813,0.3896861372165348,798.6080586080586,802.6373626373627,800.6227106227107,789.3406593406594,860.2564102564103,758.3150183150184,-0.552673,0.044861,0.821411,0.037384,-0.829926,-0.441132,422502344.322344,352772820.512820,2450622.710623,79.758751,1,1,1,1,1,99.000000
2025-09-24 18:44:54.400,1.316494652010812,0.1759370574461175,-0.1508249949481318,1.402488492749149,0.6826431863501259,0.3182289130665287,-0.4258698646484717,1.019050976437086,1.370625516860682,0.4174162552904048,-0.06633377014069539,1.492951558132009,0.7216012227574298,1.314891424456674,-0.1921830110820367,0.9488188157805288,0.1305149092592784,1.180525663563776,-0.5937261434881016,0.363088038646827,795.7875457875458,841.3186813186813,801.025641025641,784.5054945054945,902.1611721611722,1101.611721611722,-0.552673,0.044861,0.821411,0.037384,-0.829926,-0.441132,422502344.322344,352772820.512820,2450622.710623,79.758751,1,1,1,1,1,99.000000
2025-09-24 18:44:54.400,1.316494652010812,0.1759370574461175,-0.1508249949481318,1.402488492749149,0.6826431863501259,0.3182289130665287,-0.4258698646484717,1.019050976437086,1.370625516860682,0.4174162552904048,-0.06633377014069539,1.492951558132009,0.7216012227574298,1.314891424456674,-0.1921830110820367,0.9488188157805288,0.1305149092592784,1.180525663563776,-0.5937261434881016,0.363088038646827,794.981684981685,811.5018315018315,801.4285714285714,796.1904761904763,930.3663003663004,1262.783882783883,-0.552673,0.044861,0.821411,0.037384,-0.829926,-0.441132,422502344.322344,352772820.512820,2450622.710623,79.758751,1,1,1,1,1,99.000000
2025-09-24 18:44:54.400,1.316494652010812,0.1759370574461175,-0.1508249949481318,1.402488492749149,0.6826431863501259,0.3182289130665287,-0.4258698646484717,1.019050976437086,1.370625516860682,0.4174162552904048,-0.06633377014069539,1.492951558132009,0.7216012227574298,1.314891424456674,-0.1921830110820367,0.9488188157805288,0.1305149092592784,1.180525663563776,-0.5937261434881016,0.363088038646827,794.5787545787546,755.4945054945055,803.4432234432235,811.0989010989011,964.6153846153846,1023.443223443223,-0.552673,0.044861,0.821411,0.037384,-0.829926,-0.441132,422502344.322344,352772820.512820,2450622.710623,79.758751,1,1,1,1,1,99.000000
2025-09-24 18:44:54.401,1.316494652010812,0.1759370574461175,-0.1508249949481318,1.402488492749149,0.6826431863501259,0.3182289130665287,-0.4258698646484717,1.019050976437086,1.370625516860682,0.4174162552904048,-0.06633377014069539,1.492951558132009,0.7216012227574298,1.314891424456674,-0.1921830110820367,0.9488188157805288,0.1305149092592784,1.180525663563776,-0.5937261434881016,0.363088038646827,791.3553113553114,746.6300366300367,802.2344322344322,815.5311355311355,904.1758241758242,677.7289377289377,-0.552673,0.044861,0.821411,0.037384,-0.829926,-0.441132,422502344.322344,352772820.512820,2450622.710623,79.758751,1,1,1,1,1,99.000000
2025-09-24 18:44:54.401,1.316494652010812,0.1759370574461175,-0.1508249949481318,1.402488492749149,0.6826431863501259,0.3182289130665287,-0.4258698646484717,1.019050976437086,1.370625516860682,0.4174162552904048,-0.06633377014069539,1.492951558132009,0.7216012227574298,1.314891424456674,-0.1921830110820367,0.9488188157805288,0.1305149092592784,1.180525663563776,-0.5937261434881016,0.363088038646827,794.981684981685,794.1758241758242,799.8168498168499,813.5164835164835,890.4761904761905,634.2124542124542,-0.552673,0.044861,0.821411,0.037384,-0.829926,-0.441132,422502344.322344,352772820.512820,2450622.710623,79.758751,1,1,1,1,1,99.000000
2025-09-24 18:44:54.401,1.316494652010812,0.1759370574461175,-0.1508249949481318,1.402488492749149,0.6826431863501259,0.3182289130665287,-0.4258698646484717,1.019050976437086,1.370625516860682,0.4174162552904048,-0.06633377014069539,1.492951558132009,0.7216012227574298,1.314891424456674,-0.1921830110820367,0.9488188157805288,0.1305149092592784,1.180525663563776,-0.5937261434881016,0.363088038646827,797.3992673992674,803.4432234432235,801.025641025641,818.7545787545788,902.5641025641025,667.2527472527473,-0.552673,0.044861,0.821411,0.037384,-0.829926,-0.441132,422502344.322344,352772820.512820,2450622.710623,79.758751,1,1,1,1,1,99.000000
2025-09-24 18:44:54.401,1.316494652010812,0.1759370574461175,-0.1508249949481318,1.402488492749149,0.6826431863501259,0.3182289130665287,-0.4258698646484717,1.019050976437086,1.370625516860682,0.4174162552904048,-0.06633377014069539,1.492951558132009,0.7216012227574298,1.314891424456674,-0.1921830110820367,0.9488188157805288,0.1305149092592784,1.180525663563776,-0.5937261434881016,0.363088038646827,799.8168498168499,801.8315018315019,805.8608058608058,824.7985347985348,845.7509157509157,668.4615384615385,-0.552673,0.044861,0.821411,0.037384,-0.829926,-0.441132,422502344.322344,352772820.512820,2450622.710623,79.758751,1,1,1,1,1,99.000000
2025-09-24 18:44:54.422,1.316494652010812,0.1759370574461175,-0.1508249949481318,1.402488492749149,0.6826431863501259,0.3182289130665287,-0.4258698646484717,1.019050976437086,1.370625516860682,0.4174162552904048,-0.06633377014069539,1.492951558132009,0.7216012227574298,1.314891424456674,-0.1921830110820367,0.9488188157805288,0.1305149092592784,1.180525663563776,-0.5937261434881016,0.363088038646827,797.8021978021978,807.0695970695971,807.4725274725275,822.7838827838829,892.893772893773,767.985347985348,-0.552673,0.044861,0.821411,0.037384,-0.829926,-0.441132,422502344.322344,352772820.512820,2450622.710623,79.758751,1,1,1,1,1,99.000000
2025-09-24 18:44:54.422,1.316494652010812,0.1759370574461175,-0.1508249949481318,1.402488492749149,0.6826431863501259,0.3182289130665287,-0.4258698646484717,1.019050976437086,1.370625516860682,0.4174162552904048,-0.06633377014069539,1.492951558132009,0.7216012227574298,1.314891424456674,-0.1921830110820367,0.9488188157805288,0.1305149092592784,1.180525663563776,-0.5937261434881016,0.363088038646827,793.7728937728938,782.893772893773,806.6666666666667,820.3663003663004,921.5018315018315,700.6959706959707,-0.552673,0.044861,0.821411,0.037384,-0.829926,-0.441132,422502344.322344,352772820.512820,2450622.710623,79.758751,1,1,1,1,1,99.000000
2025-09-24 18:44:54.422,1.316494652010812,0.1759370574461175,-0.1508249949481318,1.402488492749149,0.6826431863501259,0.3182289130665287,-0.4258698646484717,1.019050976437086,1.370625516860682,0.4174162552904048,-0.06633377014069539,1.492951558132009,0.7216012227574298,1.314891424456674,-0.1921830110820367,0.9488188157805288,0.1305149092592784,1.180525663563776,-0.5937261434881016,0.363088038646827,792.1611721611722,838.901098901099,808.6813186813187,827.6190476190476,886.4468864468864,829.2307692307693,-0.552673,0.044861,0.821411,0.037384,-0.829926,-0.441132,422502344.322344,352772820.512820,2450622.710623,79.758751,1,1,1,1,1,99.000000
2025-09-24 18:44:54.423,1.316494652010812,0.1759370574461175,-0.1508249949481318,1.402488492749149,0.6826431863501259,0.3182289130665287,-0.4258698646484717,1.019050976437086,1.370625516860682,0.4174162552904048,-0.06633377014069539,1.492951558132009,0.7216012227574298,1.314891424456674,-0.1921830110820367,0.9488188157805288,0.1305149092592784,1.180525663563776,-0.5937261434881016,0.363088038646827,801.4285714285714,832.8571428571429,809.0842490842491,839.3040293040293,878.7912087912089,1090.32967032967,-0.552673,0.044861,0.821411,0.037384,-0.829926,-0.441132,422502344.322344,352772820.512820,2450622.710623,79.758751,1,1,1,1,1,99.000000
2025-09-24 18:44:54.423,1.316494652010812,0.1759370574461175,-0.1508249949481318,1.402488492749149,0.6826431863501259,0.3182289130665287,-0.4258698646484717,1.019050976437086,1.370625516860682,0.4174162552904048,-0.06633377014069539,1.492951558132009,0.7216012227574298,1.314891424456674,-0.1921830110820367,0.9488188157805288,0.1305149092592784,1.180525663563776,-0.5937261434881016,0.363088038646827,809.0842490842491,761.1355311355312,801.4285714285714,838.0952380952381,902.5641025641025,956.5567765567766,-0.552673,0.044861,0.821411,0.037384,-0.829926,-0.441132,422502344.322344,352772820.512820,2450622.710623,79.758751,1,1,1,1,1,99.000000
2025-09-24 18:44:54.423,1.316494652010812,0.1759370574461175,-0.1508249949481318,1.402488492749149,0.6826431863501259,0.3182289130665287,-0.4258698646484717,1.019050976437086,1.370625516860682,0.4174162552904048,-0.06633377014069539,1.492951558132009,0.7216012227574298,1.314891424456674,-0.1921830110820367,0.9488188157805288,0.1305149092592784,1.180525663563776,-0.5937261434881016,0.363088038646827,811.5018315018315,803.040293040293,799.4139194139194,828.021978021978,898.5347985347986,1016.190476190476,-0.552673,0.044861,0.821411,0.037384,-0.829926,-0.441132,422502344.322344,352772820.512820,2450622.710623,79.758751,1,1,1,1,1,99.000000
2025-09-24 18:44:54.423,1.316494652010812,0.1759370574461175,-0.1508249949481318,1.402488492749149,0.6826431863501259,0.3182289130665287,-0.4258698646484717,1.019050976437086,1.370625516860682,0.4174162552904048,-0.06633377014069539,1.492951558132009,0.7216012227574298,1.314891424456674,-0.1921830110820367,0.9488188157805288,0.1305149092592784,1.180525663563776,-0.5937261434881016,0.363088038646827,817.948717948718,804.2490842490843,800.6227106227107,835.6776556776557,919.8901098901099,1041.575091575092,-0.552673,0.044861,0.821411,0.037384,-0.829926,-0.441132,422502344.322344,352772820.512820,2450622.710623,79.758751,1,1,1,1,1,99.000000
2025-09-24 18:44:54.423,1.316494652010812,0.1759370574461175,-0.1508249949481318,1.402488492749149,0.6826431863501259,0.3182289130665287,-0.4258698646484717,1.019050976437086,1.370625516860682,0.4174162552904048,-0.06633377014069539,1.492951558132009,0.7216012227574298,1.314891424456674,-0.1921830110820367,0.9488188157805288,0.1305149092592784,1.180525663563776,-0.5937261434881016,0.363088038646827,824.7985347985348,774.8351648351648,801.025641025641,848.5714285714286,974.2857142857143,869.92673992674,-0.552673,0.044861,0.821411,0.037384,-0.829926,-0.441132,422502344.322344,352772820.512820,2450622.710623,79.758751,1,1,1,1,1,99.000000
2025-09-24 18:44:54.423,1.316494652010812,0.1759370574461175,-0.1508249949481318,1.402488492749149,0.6826431863501259,0.3182289130665287,-0.4258698646484717,1.019050976437086,1.370625516860682,0.4174162552904048,-0.06633377014069539,1.492951558132009,0.7216012227574298,1.314891424456674,-0.1921830110820367,0.9488188157805288,0.1305149092592784,1.180525663563776,-0.5937261434881016,0.363088038646827,831.2454212454213,785.3113553113553,803.8461538461539,840.5128205128206,911.8315018315019,732.5274725274726,-0.552673,0.044861,0.821411,0.037384,-0.829926,-0.441132,422502344.322344,352772820.512820,2450622.710623,79.758751,1,1,1,1,1,99.000000
2025-09-24 18:44:54.423,1.316494652010812,0.1759370574461175,-0.1508249949481318,1.402488492749149,0.6826431863501259,0.3182289130665287,-0.4258698646484717,1.019050976437086,1.370625516860682,0.4174162552904048,-0.06633377014069539,1.492951558132009,0.7216012227574298,1.314891424456674,-0.1921830110820367,0.9488188157805288,0.1305149092592784,1.180525663563776,-0.5937261434881016,0.363088038646827,828.8278388278388,795.7875457875458,809.8901098901099,836.0805860805862,876.7765567765568,676.9230769230769,-0.552673,0.044861,0.821411,0.037384,-0.829926,-0.441132,422502344.322344,352772820.512820,2450622.710623,79.758751,1,1,1,1,1,99.000000
2025-09-24 18:44:54.423,1.316494652010812,0.1759370574461175,-0.1508249949481318,1.402488492749149,0.6826431863501259,0.3182289130665287,-0.4258698646484717,1.019050976437086,1.370625516860682,0.4174162552904048,-0.06633377014069539,1.492951558132009,0.7216012227574298,1.314891424456674,-0.1921830110820367,0.9488188157805288,0.1305149092592784,1.180525663563776,-0.5937261434881016,0.363088038646827,821.5750915750916,806.6666666666667,811.5018315018315,839.3040293040293,928.7545787545788,691.025641025641,-0.552673,0.044861,0.821411,0.037384,-0.829926,-0.441132,422502344.322344,352772820.512820,2450622.710623,79.758751,1,1,1,1,1,99.000000
2025-09-24 18:44:54.424,1.316494652010812,0.1759370574461175,-0.1508249949481318,1.402488492749149,0.6826431863501259,0.3182289130665287,-0.4258698646484717,1.019050976437086,1.370625516860682,0.4174162552904048,-0.06633377014069539,1.492951558132009,0.7216012227574298,1.314891424456674,-0.1921830110820367,0.9488188157805288,0.1305149092592784,1.180525663563776,-0.5937261434881016,0.363088038646827,823.5897435897436,802.2344322344322,806.2637362637363,831.6483516483516,881.6117216117217,680.1465201465202,-0.552673,0.044861,0.821411,0.037384,-0.829926,-0.441132,422502344.322344,352772820.512820,2450622.710623,79.758751,1,1,1,1,1,99.000000
2025-09-24 18:44:54.467,1.316494652010812,0.1759370574461175,-0.1508249949481318,1.402488492749149,0.6826431863501259,0.3182289130665287,-0.4258698646484717,1.019050976437086,1.370625516860682,0.4174162552904048,-0.06633377014069539,1.492951558132009,0.7216012227574298,1.314891424456674,-0.1921830110820367,0.9488188157805288,0.1305149092592784,1.180525663563776,-0.5937261434881016,0.363088038646827,820.3663003663004,792.1611721611722,801.8315018315019,823.992673992674,805.8608058608058,676.5201465201466,-0.548828,0.039185,0.818115,0.022430,-0.695343,-0.388794,422502344.322344,352983150.183150,2522344.322344,79.700607,1,1,1,1,1,99.000000
2025-09-24 18:44:54.467,1.316494652010812,0.1759370574461175,-0.1508249949481318,1.402488492749149,0.6826431863501259,0.3182289130665287,-0.4258698646484717,1.019050976437086,1.370625516860682,0.4174162552904048,-0.06633377014069539,1.492951558132009,0.7216012227574298,1.314891424456674,-0.1921830110820367,0.9488188157805288,0.1305149092592784,1.180525663563776,-0.5937261434881016,0.363088038646827,809.8901098901099,792.967032967033,801.025641025641,817.5457875457876,849.7802197802198,717.6190476190476,-0.548828,0.039185,0.818115,0.022430,-0.695343,-0.388794,422502344.322344,352983150.183150,2522344.322344,79.700607,1,1,1,1,1,99.000000
2025-09-24 18:44:54.467,1.316494652010812,0.1759370574461175,-0.1508249949481318,1.402488492749149,0.6826431863501259,0.3182289130665287,-0.4258698646484717,1.019050976437086,1.370625516860682,0.4174162552904048,-0.06633377014069539,1.492951558132009,0.7216012227574298,1.314891424456674,-0.1921830110820367,0.9488188157805288,0.1305149092592784,1.180525663563776,-0.5937261434881016,0.363088038646827,803.4432234432235,799.0109890109891,799.4139194139194,811.0989010989011,864.6886446886447,695.8608058608058,-0.548828,0.039185,0.818115,0.022430,-0.695343,-0.388794,422502344.322344,352983150.183150,2522344.322344,79.700607,1,1,1,1,1,99.000000
2025-09-24 18:44:54.467,1.316494652010812,0.1759370574461175,-0.1508249949481318,1.402488492749149,0.6826431863501259,0.3182289130665287,-0.4258698646484717,1.019050976437086,1.370625516860682,0.4174162552904048,-0.06633377014069539,1.492951558132009,0.7216012227574298,1.314891424456674,-0.1921830110820367,0.9488188157805288,0.1305149092592784,1.180525663563776,-0.5937261434881016,0.363088038646827,796.5934065934066,803.8461538461539,802.2344322344322,805.0549450549451,900.1465201465202,807.4725274725275,-0.548828,0.039185,0.818115,0.022430,-0.695343,-0.388794,422502344.322344,352983150.183150,2522344.322344,79.700607,1,1,1,1,1,99.000000
2025-09-24 18:44:54.467,1.316494652010812,0.1759370574461175,-0.1508249949481318,1.402488492749149,0.6826431863501259,0.3182289130665287,-0.4258698646484717,1.019050976437086,1.370625516860682,0.4174162552904048,-0.06633377014069539,1.492951558132009,0.7216012227574298,1.314891424456674,-0.1921830110820367,0.9488188157805288,0.1305149092592784,1.180525663563776,-0.5937261434881016,0.363088038646827,794.5787545787546,797.3992673992674,804.6520146520147,801.025641025641,921.9047619047619,854.6153846153846,-0.548828,0.039185,0.818115,0.022430,-0.695343,-0.388794,422502344.322344,352983150.183150,2522344.322344,79.700607,1,1,1,1,1,99.000000
2025-09-24 18:44:54.468,1.316494652010812,0.1759370574461175,-0.1508249949481318,1.402488492749149,0.6826431863501259,0.3182289130665287,-0.4258698646484717,1.019050976437086,1.370625516860682,0.4174162552904048,-0.06633377014069539,1.492951558132009,0.7216012227574298,1.314891424456674,-0.1921830110820367,0.9488188157805288,0.1305149092592784,1.180525663563776,-0.5937261434881016,0.363088038646827,793.7728937728938,816.3369963369963,801.025641025641,801.025641025641,846.1538461538462,1043.992673992674,-0.548828,0.039185,0.818115,0.022430,-0.695343,-0.388794,422502344.322344,352983150.183150,2522344.322344,79.700607,1,1,1,1,1,99.000000
2025-09-24 18:44:54.468,1.316494652010812,0.1759370574461175,-0.1508249949481318,1.402488492749149,0.6826431863501259,0.3182289130665287,-0.4258698646484717,1.019050976437086,1.370625516860682,0.4174162552904048,-0.06633377014069539,1.492951558132009,0.7216012227574298,1.314891424456674,-0.1921830110820367,0.9488188157805288,0.1305149092592784,1.180525663563776,-0.5937261434881016,0.363088038646827,797.8021978021978,805.8608058608058,802.2344322344322,799.0109890109891,857.032967032967,1248.278388278388,-0.548828,0.039185,0.818115,0.022430,-0.695343,-0.388794,422502344.322344,352983150.183150,2522344.322344,79.700607,1,1,1,1,1,99.000000
2025-09-24 18:44:54.468,1.126619348055663,0.1759370574461175,-0.1551966917628204,1.350835744062798,0.5026637065313236,0.3182289130665287,-0.4242531568436261,0.971808244928559,1.242169929089464,0.4174162552904048,-0.05925106576063477,1.492951558132009,0.7072143104209599,1.314891424456674,-0.1899107083795268,0.9496060492449381,0.13757394647795,1.180525663563776,-0.5988496539337982,0.3240343807136954,805.4578754578755,753.4798534798535,802.2344322344322,800.2197802197802,785.7142857142858,1043.589743589744,-0.548828,0.039185,0.818115,0.022430,-0.695343,-0.388794,422502344.322344,352983150.183150,2522344.322344,79.700607,1,1,1,1,1,99.000000
2025-09-24 18:44:54.469,1.126619348055663,0.1759370574461175,-0.1551966917628204,1.350835744062798,0.5026637065313236,0.3182289130665287,-0.4242531568436261,0.971808244928559,1.242169929089464,0.4174162552904048,-0.05925106576063477,1.492951558132009,0.7072143104209599,1.314891424456674,-0.1899107083795268,0.9496060492449381,0.13757394647795,1.180525663563776,-0.5988496539337982,0.3240343807136954,812.3076923076924,759.92673992674,803.040293040293,804.2490842490843,778.8644688644689,763.5531135531136,-0.548828,0.039185,0.818115,0.022430,-0.695343,-0.388794,422502344.322344,352983150.183150,2522344.322344,79.700607,1,1,1,1,1,99.000000
2025-09-24 18:44:54.469,1.126619348055663,0.1759370574461175,-0.1551966917628204,1.350835744062798,0.5026637065313236,0.3182289130665287,-0.4242531568436261,0.971808244928559,1.242169929089464,0.4174162552904048,-0.05925106576063477,1.492951558132009,0.7072143104209599,1.314891424456674,-0.1899107083795268,0.9496060492449381,0.13757394647795,1.180525663563776,-0.5988496539337982,0.3240343807136954,817.948717948718,785.3113553113553,805.8608058608058,798.2051282051282,834.8717948717949,661.6117216117216,-0.548828,0.039185,0.818115,0.022430,-0.695343,-0.388794,422502344.322344,352983150.183150,2522344.322344,79.700607,1,1,1,1,1,99.000000
2025-09-24 18:44:54.469,1.126619348055663,0.1759370574461175,-0.1551966917628204,1.350835744062798,0.5026637065313236,0.3182289130665287,-0.4242531568436261,0.971808244928559,1.242169929089464,0.4174162552904048,-0.05925106576063477,1.492951558132009,0.7072143104209599,1.314891424456674,-0.1899107083795268,0.9496060492449381,0.13757394647795,1.180525663563776,-0.5988496539337982,0.3240343807136954,822.7838827838829,792.967032967033,805.8608058608058,798.6080586080586,803.8461538461539,588.2783882783883,-0.548828,0.039185,0.818115,0.022430,-0.695343,-0.388794,422502344.322344,352983150.183150,2522344.322344,79.700607,1,1,1,1,1,99.000000
2025-09-24 18:44:54.469,1.126619348055663,0.1759370574461175,-0.1551966917628204,1.350835744062798,0.5026637065313236,0.3182289130665287,-0.4242531568436261,0.971808244928559,1.242169929089464,0.4174162552904048,-0.05925106576063477,1.492951558132009,0.7072143104209599,1.314891424456674,-0.1899107083795268,0.9496060492449381,0.13757394647795,1.180525663563776,-0.5988496539337982,0.3240343807136954,829.2307692307693,826.8131868131868,805.8608058608058,798.2051282051282,830.8424908424909,724.8717948717949,-0.548828,0.039185,0.818115,0.022430,-0.695343,-0.388794,422502344.322344,352983150.183150,2522344.322344,79.700607,1,1,1,1,1,99.000000
2025-09-24 18:44:54.512,1.126619348055663,0.1759370574461175,-0.1551966917628204,1.350835744062798,0.5026637065313236,0.3182289130665287,-0.4242531568436261,0.971808244928559,1.242169929089464,0.4174162552904048,-0.05925106576063477,1.492951558132009,0.7072143104209599,1.314891424456674,-0.1899107083795268,0.9496060492449381,0.13757394647795,1.180525663563776,-0.5988496539337982,0.3240343807136954,832.4542124542124,793.7728937728938,805.0549450549451,793.3699633699634,819.96336996337,730.1098901098901,-0.548401,0.042725,0.816895,0.201874,-0.814972,0.269165,422502344.322344,352983150.183150,2522344.322344,79.700607,1,1,1,1,1,99.000000
2025-09-24 18:44:54.512,1.126619348055663,0.1759370574461175,-0.1551966917628204,1.350835744062798,0.5026637065313236,0.3182289130665287,-0.4242531568436261,0.971808244928559,1.242169929089464,0.4174162552904048,-0.05925106576063477,1.492951558132009,0.7072143104209599,1.314891424456674,-0.1899107083795268,0.9496060492449381,0.13757394647795,1.180525663563776,-0.5988496539337982,0.3240343807136954,835.6776556776557,787.7289377289378,803.8461538461539,793.7728937728938,785.7142857142858,584.6520146520147,-0.548401,0.042725,0.816895,0.201874,-0.814972,0.269165,422502344.322344,352983150.183150,2522344.322344,79.700607,1,1,1,1,1,99.000000
2025-09-24 18:44:54.512,1.126619348055663,0.1759370574461175,-0.1551966917628204,1.350835744062798,0.5026637065313236,0.3182289130665287,-0.4242531568436261,0.971808244928559,1.242169929089464,0.4174162552904048,-0.05925106576063477,1.492951558132009,0.7072143104209599,1.314891424456674,-0.1899107083795268,0.9496060492449381,0.13757394647795,1.180525663563776,-0.5988496539337982,0.3240343807136954,822.3809523809524,830.4395604395604,802.6373626373627,784.9084249084249,770,835.2747252747253,-0.548401,0.042725,0.816895,0.201874,-0.814972,0.269165,422502344.322344,352983150.183150,2522344.322344,79.700607,1,1,1,1,1,99.000000
2025-09-24 18:44:54.513,1.126619348055663,0.1759370574461175,-0.1551966917628204,1.350835744062798,0.5026637065313236,0.3182289130665287,-0.4242531568436261,0.971808244928559,1.242169929089464,0.4174162552904048,-0.05925106576063477,1.492951558132009,0.7072143104209599,1.314891424456674,-0.1899107083795268,0.9496060492449381,0.13757394647795,1.180525663563776,-0.5988496539337982,0.3240343807136954,815.1282051282052,794.1758241758242,802.2344322344322,779.2673992673992,848.5714285714286,936.007326007326,-0.548401,0.042725,0.816895,0.201874,-0.814972,0.269165,422502344.322344,352983150.183150,2522344.322344,79.700607,1,1,1,1,1,99.000000
2025-09-24 18:44:54.513,1.126619348055663,0.1759370574461175,-0.1551966917628204,1.350835744062798,0.5026637065313236,0.3182289130665287,-0.4242531568436261,0.971808244928559,1.242169929089464,0.4174162552904048,-0.05925106576063477,1.492951558132009,0.7072143104209599,1.314891424456674,-0.1899107083795268,0.9496060492449381,0.13757394647795,1.180525663563776,-0.5988496539337982,0.3240343807136954,823.5897435897436,794.5787545787546,804.2490842490843,769.5970695970697,936.007326007326,754.2857142857143,-0.548401,0.042725,0.816895,0.201874,-0.814972,0.269165,422502344.322344,352983150.183150,2522344.322344,79.700607,1,1,1,1,1,99.000000
2025-09-24 18:44:54.513,1.126619348055663,0.1759370574461175,-0.1551966917628204,1.350835744062798,0.5026637065313236,0.3182289130665287,-0.4242531568436261,0.971808244928559,1.242169929089464,0.4174162552904048,-0.05925106576063477,1.492951558132009,0.7072143104209599,1.314891424456674,-0.1899107083795268,0.9496060492449381,0.13757394647795,1.180525663563776,-0.5988496539337982,0.3240343807136954,828.4249084249085,857.4358974358975,800.2197802197802,764.7619047619048,925.5311355311355,1048.827838827839,-0.548401,0.042725,0.816895,0.201874,-0.814972,0.269165,422502344.322344,352983150.183150,2522344.322344,79.700607,1,1,1,1,1,99.000000
2025-09-24 18:44:54.513,1.126619348055663,0.1759370574461175,-0.1551966917628204,1.350835744062798,0.5026637065313236,0.3182289130665287,-0.4242531568436261,0.971808244928559,1.242169929089464,0.4174162552904048,-0.05925106576063477,1.492951558132009,0.7072143104209599,1.314891424456674,-0.1899107083795268,0.9496060492449381,0.13757394647795,1.180525663563776,-0.5988496539337982,0.3240343807136954,827.2161172161173,823.1868131868132,793.7728937728938,769.1941391941392,936.8131868131868,1317.985347985348,-0.548401,0.042725,0.816895,0.201874,-0.814972,0.269165,422502344.322344,352983150.183150,2522344.322344,79.700607,1,1,1,1,1,99.000000
2025-09-24 18:44:54.513,1.126619348055663,0.1759370574461175,-0.1551966917628204,1.350835744062798,0.5026637065313236,0.3182289130665287,-0.4242531568436261,0.971808244928559,1.242169929089464,0.4174162552904048,-0.05925106576063477,1.492951558132009,0.7072143104209599,1.314891424456674,-0.1899107083795268,0.9496060492449381,0.13757394647795,1.180525663563776,-0.5988496539337982,0.3240343807136954,821.978021978022,736.959706959707,792.1611721611722,774.4322344322345,955.3479853479854,936.007326007326,-0.548401,0.042725,0.816895,0.201874,-0.814972,0.269165,422502344.322344,352983150.183150,2522344.322344,79.700607,1,1,1,1,1,99.000000
2025-09-24 18:44:54.513,1.126619348055663,0.1759370574461175,-0.1551966917628204,1.350835744062798,0.5026637065313236,0.3182289130665287,-0.4242531568436261,0.971808244928559,1.242169929089464,0.4174162552904048,-0.05925106576063477,1.492951558132009,0.7072143104209599,1.314891424456674,-0.1899107083795268,0.9496060492449381,0.13757394647795,1.180525663563776,-0.5988496539337982,0.3240343807136954,813.919413919414,776.8498168498169,797.8021978021978,786.1172161172161,962.6007326007326,705.934065934066,-0.548401,0.042725,0.816895,0.201874,-0.814972,0.269165,422502344.322344,352983150.183150,2522344.322344,79.700607,1,1,1,1,1,99.000000
2025-09-24 18:44:54.514,1.126619348055663,0.1759370574461175,-0.1551966917628204,1.350835744062798,0.5026637065313236,0.3182289130665287,-0.4242531568436261,0.971808244928559,1.242169929089464,0.4174162552904048,-0.05925106576063477,1.492951558132009,0.7072143104209599,1.314891424456674,-0.1899107083795268,0.9496060492449381,0.13757394647795,1.180525663563776,-0.5988496539337982,0.3240343807136954,789.7435897435897,810.6959706959707,803.8461538461539,790.952380952381,877.985347985348,863.8827838827839,-0.548401,0.042725,0.816895,0.201874,-0.814972,0.269165,422502344.322344,352983150.183150,2522344.322344,79.700607,1,1,1,1,1,99.000000
2025-09-24 18:44:54.514,1.126619348055663,0.1759370574461175,-0.1551966917628204,1.350835744062798,0.5026637065313236,0.3182289130665287,-0.4242531568436261,0.971808244928559,1.242169929089464,0.4174162552904048,-0.05925106576063477,1.492951558132009,0.7072143104209599,1.314891424456674,-0.1899107083795268,0.9496060492449381,0.13757394647795,1.180525663563776,-0.5988496539337982,0.3240343807136954,775.6410256410256,778.8644688644689,807.0695970695971,794.1758241758242,856.2271062271062,807.0695970695971,-0.548401,0.042725,0.816895,0.201874,-0.814972,0.269165,422502344.322344,352983150.183150,2522344.322344,79.700607,1,1,1,1,1,99.000000
2025-09-24 18:44:54.514,1.126619348055663,0.1759370574461175,-0.1551966917628204,1.350835744062798,0.5026637065313236,0.3182289130665287,-0.4242531568436261,0.971808244928559,1.242169929089464,0.4174162552904048,-0.05925106576063477,1.492951558132009,0.7072143104209599,1.314891424456674,-0.1899107083795268,0.9496060492449381,0.13757394647795,1.180525663563776,-0.5988496539337982,0.3240343807136954,774.4322344322345,785.7142857142858,809.8901098901099,795.7875457875458,957.7655677655678,770,-0.548401,0.042725,0.816895,0.201874,-0.814972,0.269165,422502344.322344,352983150.183150,2522344.322344,79.700607,1,1,1,1,1,99.000000
2025-09-24 18:44:54.578,1.126619348055663,0.1759370574461175,-0.1551966917628204,1.350835744062798,0.5026637065313236,0.3182289130665287,-0.4242531568436261,0.971808244928559,1.242169929089464,0.4174162552904048,-0.05925106576063477,1.492951558132009,0.7072143104209599,1.314891424456674,-0.1899107083795268,0.9496060492449381,0.13757394647795,1.180525663563776,-0.5988496539337982,0.3240343807136954,781.6849816849817,794.981684981685,809.4871794871796,792.5641025641025,990.4029304029305,816.3369963369963,-0.550232,0.048645,0.812988,0.044861,-1.413116,0.456085,422502344.322344,353137875.457875,2486080.586081,79.622574,1,1,1,1,1,99.000000
2025-09-24 18:44:54.579,1.126619348055663,0.1759370574461175,-0.1551966917628204,1.350835744062798,0.5026637065313236,0.3182289130665287,-0.4242531568436261,0.971808244928559,1.242169929089464,0.4174162552904048,-0.05925106576063477,1.492951558132009,0.7072143104209599,1.314891424456674,-0.1899107083795268,0.9496060492449381,0.13757394647795,1.180525663563776,-0.5988496539337982,0.3240343807136954,790.1465201465202,782.893772893773,809.4871794871796,795.7875457875458,901.7582417582418,749.047619047619,-0.550232,0.048645,0.812988,0.044861,-1.413116,0.456085,422502344.322344,353137875.457875,2486080.586081,79.622574,1,1,1,1,1,99.000000
2025-09-24 18:44:54.579,1.126619348055663,0.1759370574461175,-0.1551966917628204,1.350835744062798,0.5026637065313236,0.3182289130665287,-0.4242531568436261,0.971808244928559,1.242169929089464,0.4174162552904048,-0.05925106576063477,1.492951558132009,0.7072143104209599,1.314891424456674,-0.1899107083795268,0.9496060492449381,0.13757394647795,1.180525663563776,-0.5988496539337982,0.3240343807136954,792.5641025641025,791.3553113553114,810.6959706959707,797.8021978021978,887.6556776556777,740.5860805860806,-0.550232,0.048645,0.812988,0.044861,-1.413116,0.456085,422502344.322344,353137875.457875,2486080.586081,79.622574,1,1,1,1,1,99.000000
2025-09-24 18:44:54.579,1.126619348055663,0.1759370574461175,-0.1551966917628204,1.350835744062798,0.5026637065313236,0.3182289130665287,-0.4242531568436261,0.971808244928559,1.242169929089464,0.4174162552904048,-0.05925106576063477,1.492951558132009,0.7072143104209599,1.314891424456674,-0.1899107083795268,0.9496060492449381,0.13757394647795,1.180525663563776,-0.5988496539337982,0.3240343807136954,802.2344322344322,781.6849816849817,810.6959706959707,792.1611721611722,875.5677655677656,706.3369963369963,-0.550232,0.048645,0.812988,0.044861,-1.413116,0.456085,422502344.322344,353137875.457875,2486080.586081,79.622574,1,1,1,1,1,99.000000
2025-09-24 18:44:54.580,1.126619348055663,0.1759370574461175,-0.1551966917628204,1.350835744062798,0.5026637065313236,0.3182289130665287,-0.4242531568436261,0.971808244928559,1.242169929089464,0.4174162552904048,-0.05925106576063477,1.492951558132009,0.7072143104209599,1.314891424456674,-0.1899107083795268,0.9496060492449381,0.13757394647795,1.180525663563776,-0.5988496539337982,0.3240343807136954,808.2783882783883,801.4285714285714,804.6520146520147,805.4578754578755,799.0109890109891,673.2967032967033,-0.550232,0.048645,0.812988,0.044861,-1.413116,0.456085,422502344.322344,353137875.457875,2486080.586081,79.622574,1,1,1,1,1,99.000000
2025-09-24 18:44:54.580,1.126619348055663,0.1759370574461175,-0.1551966917628204,1.350835744062798,0.5026637065313236,0.3182289130665287,-0.4242531568436261,0.971808244928559,1.242169929089464,0.4174162552904048,-0.05925106576063477,1.492951558132009,0.7072143104209599,1.314891424456674,-0.1899107083795268,0.9496060492449381,0.13757394647795,1.180525663563776,-0.5988496539337982,0.3240343807136954,812.7106227106227,857.032967032967,803.040293040293,827.6190476190476,848.5714285714286,1028.278388278388,-0.550232,0.048645,0.812988,0.044861,-1.413116,0.456085,422502344.322344,353137875.457875,2486080.586081,79.622574,1,1,1,1,1,99.000000
2025-09-24 18:44:54.580,1.126619348055663,0.1759370574461175,-0.1551966917628204,1.350835744062798,0.5026637065313236,0.3182289130665287,-0.4242531568436261,0.971808244928559,1.242169929089464,0.4174162552904048,-0.05925106576063477,1.492951558132009,0.7072143104209599,1.314891424456674,-0.1899107083795268,0.9496060492449381,0.13757394647795,1.180525663563776,-0.5988496539337982,0.3240343807136954,816.7399267399268,799.0109890109891,806.6666666666667,807.8754578754579,901.3553113553114,1221.684981684982,-0.550232,0.048645,0.812988,0.044861,-1.413116,0.456085,422502344.322344,353137875.457875,2486080.586081,79.622574,1,1,1,1,1,99.000000
2025-09-24 18:44:54.580,1.126619348055663,0.1759370574461175,-0.1551966917628204,1.350835744062798,0.5026637065313236,0.3182289130665287,-0.4242531568436261,0.971808244928559,1.242169929089464,0.4174162552904048,-0.05925106576063477,1.492951558132009,0.7072143104209599,1.314891424456674,-0.1899107083795268,0.9496060492449381,0.13757394647795,1.180525663563776,-0.5988496539337982,0.3240343807136954,806.6666666666667,735.7509157509157,804.6520146520147,786.1172161172161,888.4615384615385,870.3296703296703,-0.550232,0.048645,0.812988,0.044861,-1.413116,0.456085,422502344.322344,353137875.457875,2486080.586081,79.622574,1,1,1,1,1,99.000000
2025-09-24 18:44:54.581,1.126619348055663,0.1759370574461175,-0.1551966917628204,1.350835744062798,0.5026637065313236,0.3182289130665287,-0.4242531568436261,0.971808244928559,1.242169929089464,0.4174162552904048,-0.05925106576063477,1.492951558132009,0.7072143104209599,1.314891424456674,-0.1899107083795268,0.9496060492449381,0.13757394647795,1.180525663563776,-0.5988496539337982,0.3240343807136954,802.2344322344322,774.0293040293041,801.4285714285714,785.7142857142858,848.5714285714286,674.9084249084249,-0.550232,0.048645,0.812988,0.044861,-1.413116,0.456085,422502344.322344,353137875.457875,2486080.586081,79.622574,1,1,1,1,1,99.000000
2025-09-24 18:44:54.581,1.099682263821121,0.1759370574461175,-0.1597924946765096,1.293209406047975,0.5095885076495924,0.3182289130665287,-0.4219203740632753,0.935822547066487,1.246590397947576,0.4174162552904048,-0.05672311249421735,1.492951558132009,0.6891061602262881,1.314891424456674,-0.1928510762460834,0.9502199769588379,0.1344620577233738,1.180525663563776,-0.602142943050628,0.2688353902230832,813.1135531135532,776.0439560439561,803.8461538461539,785.3113553113553,785.7142857142858,498.4249084249084,-0.550232,0.048645,0.812988,0.044861,-1.413116,0.456085,422502344.322344,353137875.457875,2486080.586081,79.622574,1,1,1,1,1,99.000000
2025-09-24 18:44:54.582,1.099682263821121,0.1759370574461175,-0.1597924946765096,1.293209406047975,0.5095885076495924,0.3182289130665287,-0.4219203740632753,0.935822547066487,1.246590397947576,0.4174162552904048,-0.05672311249421735,1.492951558132009,0.6891061602262881,1.314891424456674,-0.1928510762460834,0.9502199769588379,0.1344620577233738,1.180525663563776,-0.602142943050628,0.2688353902230832,816.3369963369963,805.0549450549451,806.6666666666667,780.0732600732601,772.8205128205128,471.8315018315018,-0.550232,0.048645,0.812988,0.044861,-1.413116,0.456085,422502344.322344,353137875.457875,2486080.586081,79.622574,1,1,1,1,1,99.000000
2025-09-24 18:44:54.583,1.099682263821121,0.1759370574461175,-0.1597924946765096,1.293209406047975,0.5095885076495924,0.3182289130665287,-0.4219203740632753,0.935822547066487,1.246590397947576,0.4174162552904048,-0.05672311249421735,1.492951558132009,0.6891061602262881,1.314891424456674,-0.1928510762460834,0.9502199769588379,0.1344620577233738,1.180525663563776,-0.602142943050628,0.2688353902230832,807.8754578754579,824.3956043956044,803.8461538461539,774.0293040293041,882.4175824175825,693.8461538461538,-0.550232,0.048645,0.812988,0.044861,-1.413116,0.456085,422502344.322344,353137875.457875,2486080.586081,79.622574,1,1,1,1,1,99.000000
2025-09-24 18:44:54.625,1.099682263821121,0.1759370574461175,-0.1597924946765096,1.293209406047975,0.5095885076495924,0.3182289130665287,-0.4219203740632753,0.935822547066487,1.246590397947576,0.4174162552904048,-0.05672311249421735,1.492951558132009,0.6891061602262881,1.314891424456674,-0.1928510762460834,0.9502199769588379,0.1344620577233738,1.180525663563776,-0.602142943050628,0.2688353902230832,795.7875457875458,815.1282051282052,804.2490842490843,771.2087912087912,906.1904761904763,834.0659340659341,-0.544312,0.034119,0.822083,0.179443,-0.971985,-0.418701,422502344.322344,353137875.457875,2486080.586081,79.622574,1,1,1,1,1,99.000000
2025-09-24 18:44:54.626,1.099682263821121,0.1759370574461175,-0.1597924946765096,1.293209406047975,0.5095885076495924,0.3182289130665287,-0.4219203740632753,0.935822547066487,1.246590397947576,0.4174162552904048,-0.05672311249421735,1.492951558132009,0.6891061602262881,1.314891424456674,-0.1928510762460834,0.9502199769588379,0.1344620577233738,1.180525663563776,-0.602142943050628,0.2688353902230832,790.5494505494506,823.992673992674,806.2637362637363,777.6556776556777,853.4065934065934,987.985347985348,-0.544312,0.034119,0.822083,0.179443,-0.971985,-0.418701,422502344.322344,353137875.457875,2486080.586081,79.622574,1,1,1,1,1,99.000000
2025-09-24 18:44:54.626,1.099682263821121,0.1759370574461175,-0.1597924946765096,1.293209406047975,0.5095885076495924,0.3182289130665287,-0.4219203740632753,0.935822547066487,1.246590397947576,0.4174162552904048,-0.05672311249421735,1.492951558132009,0.6891061602262881,1.314891424456674,-0.1928510762460834,0.9502199769588379,0.1344620577233738,1.180525663563776,-0.602142943050628,0.2688353902230832,790.1465201465202,791.7582417582418,805.8608058608058,799.0109890109891,863.4798534798535,977.5091575091575,-0.544312,0.034119,0.822083,0.179443,-0.971985,-0.418701,422502344.322344,353137875.457875,2486080.586081,79.622574,1,1,1,1,1,99.000000
2025-09-24 18:44:54.627,1.099682263821121,0.1759370574461175,-0.1597924946765096,1.293209406047975,0.5095885076495924,0.3182289130665287,-0.4219203740632753,0.935822547066487,1.246590397947576,0.4174162552904048,-0.05672311249421735,1.492951558132009,0.6891061602262881,1.314891424456674,-0.1928510762460834,0.9502199769588379,0.1344620577233738,1.180525663563776,-0.602142943050628,0.2688353902230832,786.1172161172161,758.3150183150184,806.2637362637363,796.5934065934066,856.6300366300367,752.6739926739926,-0.544312,0.034119,0.822083,0.179443,-0.971985,-0.418701,422502344.322344,353137875.457875,2486080.586081,79.622574,1,1,1,1,1,99.000000
2025-09-24 18:44:54.627,1.099682263821121,0.1759370574461175,-0.1597924946765096,1.293209406047975,0.5095885076495924,0.3182289130665287,-0.4219203740632753,0.935822547066487,1.246590397947576,0.4174162552904048,-0.05672311249421735,1.492951558132009,0.6891061602262881,1.314891424456674,-0.1928510762460834,0.9502199769588379,0.1344620577233738,1.180525663563776,-0.602142943050628,0.2688353902230832,784.5054945054945,783.2967032967033,802.6373626373627,784.9084249084249,822.7838827838829,643.4798534798535,-0.544312,0.034119,0.822083,0.179443,-0.971985,-0.418701,422502344.322344,353137875.457875,2486080.586081,79.622574,1,1,1,1,1,99.000000
