TimeStamp,Delta_TP9,Delta_AF7,Delta_AF8,Delta_TP10,Theta_TP9,Theta_AF7,Theta_AF8,Theta_TP10,Alpha_TP9,Alpha_AF7,Alpha_AF8,Alpha_TP10,Beta_TP9,Beta_AF7,Beta_AF8,Beta_TP10,Gamma_TP9,Gamma_AF7,Gamma_AF8,Gamma_TP10,RAW_TP9,RAW_AF7,RAW_AF8,RAW_TP10,AUX_RIGHT,AUX_LEFT,Accelerometer_X,Accelerometer_Y,Accelerometer_Z,Gyro_X,Gyro_Y,Gyro_Z,PPG_Ambient,PPG_IR,PPG_Red,Heart_Rate,HeadBandOn,HSI_TP9,HSI_AF7,HSI_AF8,HSI_TP10,Battery,Elements
2025-10-01 15:28:53.681,,,,,,,,,,,,,,,,,,,,,,,,,,,,,,,,,,,,,,,,,,,/muse/event/connected MuseS-9CF6
2025-10-01 15:28:53.758,1.353028983122959,0.09097145996227708,0.5682361630067064,1.76848173261097,1.233289610783586,-0.2390476665902966,-0.248180996318325,1.546042098177828,1.372374123722079,0.3943130151552642,0.08760050520244284,1.50336713278083,1.27371800064213,1.158449563985633,0.5616568840291331,1.39132123710713,0.7960440052049448,1.476821837878335,0.3038301815992273,1.143826442727972,881.6117216117217,827.6190476190476,801.025641025641,837.2893772893773,885.6410256410256,782.0879120879121,-0.181641,0.036438,0.969116,0.620575,-1.069183,0.837402,422502344.322344,373835604.395604,2912380.952381,88.415840,1,2,1,1,2,100.000000
2025-10-01 15:28:53.759,1.353028983122959,0.09097145996227708,0.5682361630067064,1.76848173261097,1.233289610783586,-0.2390476665902966,-0.248180996318325,1.546042098177828,1.372374123722079,0.3943130151552642,0.08760050520244284,1.50336713278083,1.27371800064213,1.158449563985633,0.5616568840291331,1.39132123710713,0.7960440052049448,1.476821837878335,0.3038301815992273,1.143826442727972,864.2857142857143,760.3296703296703,798.2051282051282,821.1721611721612,836.4835164835165,702.3076923076924,-0.181641,0.036438,0.969116,0.620575,-1.069183,0.837402,422502344.322344,373835604.395604,2912380.952381,88.415840,1,2,1,1,2,100.000000
2025-10-01 15:28:53.759,1.353028983122959,0.09097145996227708,0.5682361630067064,1.76848173261097,1.233289610783586,-0.2390476665902966,-0.248180996318325,1.546042098177828,1.372374123722079,0.3943130151552642,0.08760050520244284,1.50336713278083,1.27371800064213,1.158449563985633,0.5616568840291331,1.39132123710713,0.7960440052049448,1.476821837878335,0.3038301815992273,1.143826442727972,861.8681318681319,866.7032967032967,796.1904761904763,841.3186813186813,823.1868131868132,850.1831501831502,-0.181641,0.036438,0.969116,0.620575,-1.069183,0.837402,422502344.322344,373835604.395604,2912380.952381,88.415840,1,2,1,1,2,100.000000
2025-10-01 15:28:53.760,1.353028983122959,0.09097145996227708,0.5682361630067064,1.76848173261097,1.233289610783586,-0.2390476665902966,-0.248180996318325,1.546042098177828,1.372374123722079,0.3943130151552642,0.08760050520244284,1.50336713278083,1.27371800064213,1.158449563985633,0.5616568840291331,1.39132123710713,0.7960440052049448,1.476821837878335,0.3038301815992273,1.143826442727972,867.1062271062272,821.978021978022,799.0109890109891,859.047619047619,878.7912087912089,965.4212454212454,-0.181641,0.036438,0.969116,0.620575,-1.069183,0.837402,422502344.322344,373835604.395604,2912380.952381,88.415840,1,2,1,1,2,100.000000
2025-10-01 15:28:53.760,1.353028983122959,0.09097145996227708,0.5682361630067064,1.76848173261097,1.233289610783586,-0.2390476665902966,-0.248180996318325,1.546042098177828,1.372374123722079,0.3943130151552642,0.08760050520244284,1.50336713278083,1.27371800064213,1.158449563985633,0.5616568840291331,1.39132123710713,0.7960440052049448,1.476821837878335,0.3038301815992273,1.143826442727972,874.7619047619048,823.992673992674,798.6080586080586,850.5860805860806,870.7326007326008,804.6520146520147,-0.181641,0.036438,0.969116,0.620575,-1.069183,0.837402,422502344.322344,373835604.395604,2912380.952381,88.415840,1,2,1,1,2,100.000000
2025-10-01 15:28:53.760,1.353028983122959,0.09097145996227708,0.5682361630067064,1.76848173261097,1.233289610783586,-0.2390476665902966,-0.248180996318325,1.546042098177828,1.372374123722079,0.3943130151552642,0.08760050520244284,1.50336713278083,1.27371800064213,1.158449563985633,0.5616568840291331,1.39132123710713,0.7960440052049448,1.476821837878335,0.3038301815992273,1.143826442727972,851.7948717948718,928.3516483516484,798.6080586080586,844.5421245421246,868.7179487179487,1027.069597069597,-0.181641,0.036438,0.969116,0.620575,-1.069183,0.837402,422502344.322344,373835604.395604,2912380.952381,88.415840,1,2,1,1,2,100.000000
2025-10-01 15:28:53.760,1.353028983122959,0.09097145996227708,0.5682361630067064,1.76848173261097,1.233289610783586,-0.2390476665902966,-0.248180996318325,1.546042098177828,1.372374123722079,0.3943130151552642,0.08760050520244284,1.50336713278083,1.27371800064213,1.158449563985633,0.5616568840291331,1.39132123710713,0.7960440052049448,1.476821837878335,0.3038301815992273,1.143826442727972,818.3516483516484,792.5641025641025,806.2637362637363,830.8424908424909,846.1538461538462,1179.377289377289,-0.181641,0.036438,0.969116,0.620575,-1.069183,0.837402,422502344.322344,373835604.395604,2912380.952381,88.415840,1,2,1,1,2,100.000000
2025-10-01 15:28:53.760,1.353028983122959,0.09097145996227708,0.5682361630067064,1.76848173261097,1.233289610783586,-0.2390476665902966,-0.248180996318325,1.546042098177828,1.372374123722079,0.3943130151552642,0.08760050520244284,1.50336713278083,1.27371800064213,1.158449563985633,0.5616568840291331,1.39132123710713,0.7960440052049448,1.476821837878335,0.3038301815992273,1.143826442727972,844.1391941391942,761.1355311355312,804.6520146520147,840.1098901098901,812.3076923076924,1139.89010989011,-0.181641,0.036438,0.969116,0.620575,-1.069183,0.837402,422502344.322344,373835604.395604,2912380.952381,88.415840,1,2,1,1,2,100.000000
2025-10-01 15:28:53.761,1.353028983122959,0.09097145996227708,0.5682361630067064,1.76848173261097,1.233289610783586,-0.2390476665902966,-0.248180996318325,1.546042098177828,1.372374123722079,0.3943130151552642,0.08760050520244284,1.50336713278083,1.27371800064213,1.158449563985633,0.5616568840291331,1.39132123710713,0.7960440052049448,1.476821837878335,0.3038301815992273,1.143826442727972,858.2417582417582,712.3809523809524,800.2197802197802,844.5421245421246,796.996336996337,728.901098901099,-0.181641,0.036438,0.969116,0.620575,-1.069183,0.837402,422502344.322344,373835604.395604,2912380.952381,88.415840,1,2,1,1,2,100.000000
2025-10-01 15:28:53.761,1.353028983122959,0.09097145996227708,0.5682361630067064,1.76848173261097,1.233289610783586,-0.2390476665902966,-0.248180996318325,1.546042098177828,1.372374123722079,0.3943130151552642,0.08760050520244284,1.50336713278083,1.27371800064213,1.158449563985633,0.5616568840291331,1.39132123710713,0.7960440052049448,1.476821837878335,0.3038301815992273,1.143826442727972,850.1831501831502,810.6959706959707,803.8461538461539,827.6190476190476,836.4835164835165,560.0732600732601,-0.181641,0.036438,0.969116,0.620575,-1.069183,0.837402,422502344.322344,373835604.395604,2912380.952381,88.415840,1,2,1,1,2,100.000000
2025-10-01 15:28:53.761,1.353028983122959,0.09097145996227708,0.5682361630067064,1.76848173261097,1.233289610783586,-0.2390476665902966,-0.248180996318325,1.546042098177828,1.372374123722079,0.3943130151552642,0.08760050520244284,1.50336713278083,1.27371800064213,1.158449563985633,0.5616568840291331,1.39132123710713,0.7960440052049448,1.476821837878335,0.3038301815992273,1.143826442727972,830.4395604395604,826.4102564102565,798.2051282051282,823.5897435897436,850.989010989011,722.4542124542124,-0.181641,0.036438,0.969116,0.620575,-1.069183,0.837402,422502344.322344,373835604.395604,2912380.952381,88.415840,1,2,1,1,2,100.000000
2025-10-01 15:28:53.761,1.353028983122959,0.09097145996227708,0.5682361630067064,1.76848173261097,1.233289610783586,-0.2390476665902966,-0.248180996318325,1.546042098177828,1.372374123722079,0.3943130151552642,0.08760050520244284,1.50336713278083,1.27371800064213,1.158449563985633,0.5616568840291331,1.39132123710713,0.7960440052049448,1.476821837878335,0.3038301815992273,1.143826442727972,828.021978021978,786.1172161172161,794.5787545787546,836.8864468864469,794.5787545787546,672.4908424908425,-0.181641,0.036438,0.969116,0.620575,-1.069183,0.837402,422502344.322344,373835604.395604,2912380.952381,88.415840,1,2,1,1,2,100.000000
2025-10-01 15:28:53.762,1.353028983122959,0.09097145996227708,0.5682361630067064,1.76848173261097,1.233289610783586,-0.2390476665902966,-0.248180996318325,1.546042098177828,1.372374123722079,0.3943130151552642,0.08760050520244284,1.50336713278083,1.27371800064213,1.158449563985633,0.5616568840291331,1.39132123710713,0.7960440052049448,1.476821837878335,0.3038301815992273,1.143826442727972,850.989010989011,836.0805860805862,798.2051282051282,842.1245421245421,813.919413919414,666.4468864468864,-0.182983,0.042969,0.976562,0.074768,-1.435547,0.755157,422502344.322344,373965347.985348,2893846.153846,88.415840,1,2,1,1,2,100.000000
2025-10-01 15:28:53.763,1.353028983122959,0.09097145996227708,0.5682361630067064,1.76848173261097,1.233289610783586,-0.2390476665902966,-0.248180996318325,1.546042098177828,1.372374123722079,0.3943130151552642,0.08760050520244284,1.50336713278083,1.27371800064213,1.158449563985633,0.5616568840291331,1.39132123710713,0.7960440052049448,1.476821837878335,0.3038301815992273,1.143826442727972,852.6007326007326,823.5897435897436,807.0695970695971,828.021978021978,825.2014652014652,720.0366300366301,-0.182983,0.042969,0.976562,0.074768,-1.435547,0.755157,422502344.322344,373965347.985348,2893846.153846,88.415840,1,2,1,1,2,100.000000
2025-10-01 15:28:53.763,1.353028983122959,0.09097145996227708,0.5682361630067064,1.76848173261097,1.233289610783586,-0.2390476665902966,-0.248180996318325,1.546042098177828,1.372374123722079,0.3943130151552642,0.08760050520244284,1.50336713278083,1.27371800064213,1.158449563985633,0.5616568840291331,1.39132123710713,0.7960440052049448,1.476821837878335,0.3038301815992273,1.143826442727972,827.2161172161173,795.7875457875458,806.2637362637363,817.948717948718,774.0293040293041,722.4542124542124,-0.182983,0.042969,0.976562,0.074768,-1.435547,0.755157,422502344.322344,373965347.985348,2893846.153846,88.415840,1,2,1,1,2,100.000000
2025-10-01 15:28:53.763,1.353028983122959,0.09097145996227708,0.5682361630067064,1.76848173261097,1.233289610783586,-0.2390476665902966,-0.248180996318325,1.546042098177828,1.372374123722079,0.3943130151552642,0.08760050520244284,1.50336713278083,1.27371800064213,1.158449563985633,0.5616568840291331,1.39132123710713,0.7960440052049448,1.476821837878335,0.3038301815992273,1.143826442727972,819.96336996337,813.919413919414,801.4285714285714,824.3956043956044,845.3479853479854,764.3589743589744,-0.182983,0.042969,0.976562,0.074768,-1.435547,0.755157,422502344.322344,373965347.985348,2893846.153846,88.415840,1,2,1,1,2,100.000000
2025-10-01 15:28:53.763,1.353028983122959,0.09097145996227708,0.5682361630067064,1.76848173261097,1.233289610783586,-0.2390476665902966,-0.248180996318325,1.546042098177828,1.372374123722079,0.3943130151552642,0.08760050520244284,1.50336713278083,1.27371800064213,1.158449563985633,0.5616568840291331,1.39132123710713,0.7960440052049448,1.476821837878335,0.3038301815992273,1.143826442727972,840.1098901098901,868.3150183150184,799.4139194139194,828.8278388278388,906.996336996337,770.4029304029305,-0.182983,0.042969,0.976562,0.074768,-1.435547,0.755157,422502344.322344,373965347.985348,2893846.153846,88.415840,1,2,1,1,2,100.000000
2025-10-01 15:28:53.763,1.353028983122959,0.09097145996227708,0.5682361630067064,1.76848173261097,1.233289610783586,-0.2390476665902966,-0.248180996318325,1.546042098177828,1.372374123722079,0.3943130151552642,0.08760050520244284,1.50336713278083,1.27371800064213,1.158449563985633,0.5616568840291331,1.39132123710713,0.7960440052049448,1.476821837878335,0.3038301815992273,1.143826442727972,850.5860805860806,904.981684981685,800.2197802197802,832.4542124542124,869.1208791208792,975.4945054945056,-0.182983,0.042969,0.976562,0.074768,-1.435547,0.755157,422502344.322344,373965347.985348,2893846.153846,88.415840,1,2,1,1,2,100.000000
2025-10-01 15:28:53.764,1.353028983122959,0.09097145996227708,0.5682361630067064,1.76848173261097,1.233289610783586,-0.2390476665902966,-0.248180996318325,1.546042098177828,1.372374123722079,0.3943130151552642,0.08760050520244284,1.50336713278083,1.27371800064213,1.158449563985633,0.5616568840291331,1.39132123710713,0.7960440052049448,1.476821837878335,0.3038301815992273,1.143826442727972,851.7948717948718,880.8058608058608,803.8461538461539,832.0512820512821,886.4468864468864,1268.827838827839,-0.182983,0.042969,0.976562,0.074768,-1.435547,0.755157,422502344.322344,373965347.985348,2893846.153846,88.415840,1,2,1,1,2,100.000000
2025-10-01 15:28:53.764,1.353028983122959,0.09097145996227708,0.5682361630067064,1.76848173261097,1.233289610783586,-0.2390476665902966,-0.248180996318325,1.546042098177828,1.372374123722079,0.3943130151552642,0.08760050520244284,1.50336713278083,1.27371800064213,1.158449563985633,0.5616568840291331,1.39132123710713,0.7960440052049448,1.476821837878335,0.3038301815992273,1.143826442727972,826.007326007326,733.7362637362637,805.8608058608058,824.7985347985348,902.1611721611722,1267.619047619048,-0.182983,0.042969,0.976562,0.074768,-1.435547,0.755157,422502344.322344,373965347.985348,2893846.153846,88.415840,1,2,1,1,2,100.000000
2025-10-01 15:28:53.764,1.353028983122959,0.09097145996227708,0.5682361630067064,1.76848173261097,1.233289610783586,-0.2390476665902966,-0.248180996318325,1.546042098177828,1.372374123722079,0.3943130151552642,0.08760050520244284,1.50336713278083,1.27371800064213,1.158449563985633,0.5616568840291331,1.39132123710713,0.7960440052049448,1.476821837878335,0.3038301815992273,1.143826442727972,807.8754578754579,627.3626373626374,807.4725274725275,813.5164835164835,883.6263736263736,789.7435897435897,-0.182983,0.042969,0.976562,0.074768,-1.435547,0.755157,422502344.322344,373965347.985348,2893846.153846,88.415840,1,2,1,1,2,100.000000
2025-10-01 15:28:53.764,1.353028983122959,0.09097145996227708,0.5682361630067064,1.76848173261097,1.233289610783586,-0.2390476665902966,-0.248180996318325,1.546042098177828,1.372374123722079,0.3943130151552642,0.08760050520244284,1.50336713278083,1.27371800064213,1.158449563985633,0.5616568840291331,1.39132123710713,0.7960440052049448,1.476821837878335,0.3038301815992273,1.143826442727972,842.9304029304029,891.6849816849817,809.8901098901099,828.021978021978,884.0293040293041,655.5677655677656,-0.182983,0.042969,0.976562,0.074768,-1.435547,0.755157,422502344.322344,373965347.985348,2893846.153846,88.415840,1,2,1,1,2,100.000000
2025-10-01 15:28:53.764,1.353028983122959,0.09097145996227708,0.5682361630067064,1.76848173261097,1.233289610783586,-0.2390476665902966,-0.248180996318325,1.546042098177828,1.372374123722079,0.3943130151552642,0.08760050520244284,1.50336713278083,1.27371800064213,1.158449563985633,0.5616568840291331,1.39132123710713,0.7960440052049448,1.476821837878335,0.3038301815992273,1.143826442727972,842.9304029304029,831.2454212454213,806.2637362637363,824.7985347985348,844.9450549450549,782.0879120879121,-0.182983,0.042969,0.976562,0.074768,-1.435547,0.755157,422502344.322344,373965347.985348,2893846.153846,88.415840,1,2,1,1,2,100.000000
2025-10-01 15:28:53.765,1.353028983122959,0.09097145996227708,0.5682361630067064,1.76848173261097,1.233289610783586,-0.2390476665902966,-0.248180996318325,1.546042098177828,1.372374123722079,0.3943130151552642,0.08760050520244284,1.50336713278083,1.27371800064213,1.158449563985633,0.5616568840291331,1.39132123710713,0.7960440052049448,1.476821837878335,0.3038301815992273,1.143826442727972,819.5604395604396,799.8168498168499,802.2344322344322,822.7838827838829,882.8205128205128,802.2344322344322,-0.182983,0.042969,0.976562,0.074768,-1.435547,0.755157,422502344.322344,373965347.985348,2893846.153846,88.415840,1,2,1,1,2,100.000000
2025-10-01 15:28:53.765,1.353028983122959,0.09097145996227708,0.5682361630067064,1.76848173261097,1.233289610783586,-0.2390476665902966,-0.248180996318325,1.546042098177828,1.372374123722079,0.3943130151552642,0.08760050520244284,1.50336713278083,1.27371800064213,1.158449563985633,0.5616568840291331,1.39132123710713,0.7960440052049448,1.476821837878335,0.3038301815992273,1.143826442727972,836.4835164835165,859.047619047619,805.0549450549451,841.7216117216118,898.1318681318681,776.4468864468864,-0.178955,0.040649,0.975220,-0.239258,-1.383209,-0.142059,422502344.322344,373965347.985348,2893846.153846,88.415840,1,2,1,1,2,100.000000
2025-10-01 15:28:53.766,1.353028983122959,0.09097145996227708,0.5682361630067064,1.76848173261097,1.233289610783586,-0.2390476665902966,-0.248180996318325,1.546042098177828,1.372374123722079,0.3943130151552642,0.08760050520244284,1.50336713278083,1.27371800064213,1.158449563985633,0.5616568840291331,1.39132123710713,0.7960440052049448,1.476821837878335,0.3038301815992273,1.143826442727972,850.1831501831502,894.5054945054945,805.0549450549451,844.9450549450549,906.1904761904763,808.6813186813187,-0.178955,0.040649,0.975220,-0.239258,-1.383209,-0.142059,422502344.322344,373965347.985348,2893846.153846,88.415840,1,2,1,1,2,100.000000
2025-10-01 15:28:53.766,1.353028983122959,0.09097145996227708,0.5682361630067064,1.76848173261097,1.233289610783586,-0.2390476665902966,-0.248180996318325,1.546042098177828,1.372374123722079,0.3943130151552642,0.08760050520244284,1.50336713278083,1.27371800064213,1.158449563985633,0.5616568840291331,1.39132123710713,0.7960440052049448,1.476821837878335,0.3038301815992273,1.143826442727972,834.0659340659341,804.2490842490843,801.4285714285714,820.7692307692308,928.3516483516484,890.4761904761905,-0.178955,0.040649,0.975220,-0.239258,-1.383209,-0.142059,422502344.322344,373965347.985348,2893846.153846,88.415840,1,2,1,1,2,100.000000
2025-10-01 15:28:53.766,1.353028983122959,0.09097145996227708,0.5682361630067064,1.76848173261097,1.233289610783586,-0.2390476665902966,-0.248180996318325,1.546042098177828,1.372374123722079,0.3943130151552642,0.08760050520244284,1.50336713278083,1.27371800064213,1.158449563985633,0.5616568840291331,1.39132123710713,0.7960440052049448,1.476821837878335,0.3038301815992273,1.143826442727972,821.1721611721612,705.1282051282052,806.6666666666667,807.8754578754579,839.3040293040293,790.1465201465202,-0.178955,0.040649,0.975220,-0.239258,-1.383209,-0.142059,422502344.322344,373965347.985348,2893846.153846,88.415840,1,2,1,1,2,100.000000
2025-10-01 15:28:53.766,1.353028983122959,0.09097145996227708,0.5682361630067064,1.76848173261097,1.233289610783586,-0.2390476665902966,-0.248180996318325,1.546042098177828,1.372374123722079,0.3943130151552642,0.08760050520244284,1.50336713278083,1.27371800064213,1.158449563985633,0.5616568840291331,1.39132123710713,0.7960440052049448,1.476821837878335,0.3038301815992273,1.143826442727972,842.5274725274726,966.6300366300367,804.6520146520147,833.6630036630037,834.4688644688645,777.6556776556777,-0.178955,0.040649,0.975220,-0.239258,-1.383209,-0.142059,422502344.322344,373965347.985348,2893846.153846,88.415840,1,2,1,1,2,100.000000
2025-10-01 15:28:53.766,1.353028983122959,0.09097145996227708,0.5682361630067064,1.76848173261097,1.233289610783586,-0.2390476665902966,-0.248180996318325,1.546042098177828,1.372374123722079,0.3943130151552642,0.08760050520244284,1.50336713278083,1.27371800064213,1.158449563985633,0.5616568840291331,1.39132123710713,0.7960440052049448,1.476821837878335,0.3038301815992273,1.143826442727972,859.047619047619,1049.6336996337,804.6520146520147,842.9304029304029,869.1208791208792,1037.545787545788,-0.178955,0.040649,0.975220,-0.239258,-1.383209,-0.142059,422502344.322344,373965347.985348,2893846.153846,88.415840,1,2,1,1,2,100.000000
2025-10-01 15:28:53.767,1.353028983122959,0.09097145996227708,0.5682361630067064,1.76848173261097,1.233289610783586,-0.2390476665902966,-0.248180996318325,1.546042098177828,1.372374123722079,0.3943130151552642,0.08760050520244284,1.50336713278083,1.27371800064213,1.158449563985633,0.5616568840291331,1.39132123710713,0.7960440052049448,1.476821837878335,0.3038301815992273,1.143826442727972,853.0036630036631,855.8241758241759,810.6959706959707,836.0805860805862,852.6007326007326,1275.677655677656,-0.178955,0.040649,0.975220,-0.239258,-1.383209,-0.142059,422502344.322344,373965347.985348,2893846.153846,88.415840,1,2,1,1,2,100.000000
2025-10-01 15:28:53.767,1.353028983122959,0.09097145996227708,0.5682361630067064,1.76848173261097,1.233289610783586,-0.2390476665902966,-0.248180996318325,1.546042098177828,1.372374123722079,0.3943130151552642,0.08760050520244284,1.50336713278083,1.27371800064213,1.158449563985633,0.5616568840291331,1.39132123710713,0.7960440052049448,1.476821837878335,0.3038301815992273,1.143826442727972,827.6190476190476,700.2930402930403,807.4725274725275,815.934065934066,877.5824175824176,1305.897435897436,-0.178955,0.040649,0.975220,-0.239258,-1.383209,-0.142059,422502344.322344,373965347.985348,2893846.153846,88.415840,1,2,1,1,2,100.000000
2025-10-01 15:28:53.767,1.353028983122959,0.09097145996227708,0.5682361630067064,1.76848173261097,1.233289610783586,-0.2390476665902966,-0.248180996318325,1.546042098177828,1.372374123722079,0.3943130151552642,0.08760050520244284,1.50336713278083,1.27371800064213,1.158449563985633,0.5616568840291331,1.39132123710713,0.7960440052049448,1.476821837878335,0.3038301815992273,1.143826442727972,805.8608058608058,570.1465201465202,803.040293040293,793.7728937728938,827.2161172161173,787.3260073260074,-0.178955,0.040649,0.975220,-0.239258,-1.383209,-0.142059,422502344.322344,373965347.985348,2893846.153846,88.415840,1,2,1,1,2,100.000000
2025-10-01 15:28:53.767,1.353028983122959,0.09097145996227708,0.5682361630067064,1.76848173261097,1.233289610783586,-0.2390476665902966,-0.248180996318325,1.546042098177828,1.372374123722079,0.3943130151552642,0.08760050520244284,1.50336713278083,1.27371800064213,1.158449563985633,0.5616568840291331,1.39132123710713,0.7960440052049448,1.476821837878335,0.3038301815992273,1.143826442727972,853.8095238095239,981.5384615384615,804.6520146520147,840.1098901098901,892.893772893773,868.3150183150184,-0.178955,0.040649,0.975220,-0.239258,-1.383209,-0.142059,422502344.322344,373965347.985348,2893846.153846,88.415840,1,2,1,1,2,100.000000
2025-10-01 15:28:53.767,1.353028983122959,0.09097145996227708,0.5682361630067064,1.76848173261097,1.233289610783586,-0.2390476665902966,-0.248180996318325,1.546042098177828,1.372374123722079,0.3943130151552642,0.08760050520244284,1.50336713278083,1.27371800064213,1.158449563985633,0.5616568840291331,1.39132123710713,0.7960440052049448,1.476821837878335,0.3038301815992273,1.143826442727972,867.5091575091575,850.989010989011,806.2637362637363,837.2893772893773,938.021978021978,1070.989010989011,-0.178955,0.040649,0.975220,-0.239258,-1.383209,-0.142059,422502344.322344,373965347.985348,2893846.153846,88.415840,1,2,1,1,2,100.000000
2025-10-01 15:28:53.768,1.353028983122959,0.09097145996227708,0.5682361630067064,1.76848173261097,1.233289610783586,-0.2390476665902966,-0.248180996318325,1.546042098177828,1.372374123722079,0.3943130151552642,0.08760050520244284,1.50336713278083,1.27371800064213,1.158449563985633,0.5616568840291331,1.39132123710713,0.7960440052049448,1.476821837878335,0.3038301815992273,1.143826442727972,832.4542124542124,664.8351648351648,808.6813186813187,799.0109890109891,843.7362637362637,732.5274725274726,-0.178955,0.040649,0.975220,-0.239258,-1.383209,-0.142059,422502344.322344,373965347.985348,2893846.153846,88.415840,1,2,1,1,2,100.000000
2025-10-01 15:28:53.769,1.353028983122959,0.09097145996227708,0.5682361630067064,1.76848173261097,1.233289610783586,-0.2390476665902966,-0.248180996318325,1.546042098177828,1.372374123722079,0.3943130151552642,0.08760050520244284,1.50336713278083,1.27371800064213,1.158449563985633,0.5616568840291331,1.39132123710713,0.7960440052049448,1.476821837878335,0.3038301815992273,1.143826442727972,828.8278388278388,836.4835164835165,810.2930402930403,807.4725274725275,853.4065934065934,673.6996336996338,-0.178589,0.035522,0.972961,-0.433655,-0.979462,-0.792542,422502344.322344,374124102.564103,2946227.106227,88.415840,1,2,1,1,2,100.000000
2025-10-01 15:28:53.769,1.353028983122959,0.09097145996227708,0.5682361630067064,1.76848173261097,1.233289610783586,-0.2390476665902966,-0.248180996318325,1.546042098177828,1.372374123722079,0.3943130151552642,0.08760050520244284,1.50336713278083,1.27371800064213,1.158449563985633,0.5616568840291331,1.39132123710713,0.7960440052049448,1.476821837878335,0.3038301815992273,1.143826442727972,844.5421245421246,836.4835164835165,810.6959706959707,823.992673992674,834.4688644688645,685.7875457875458,-0.178589,0.035522,0.972961,-0.433655,-0.979462,-0.792542,422502344.322344,374124102.564103,2946227.106227,88.415840,1,2,1,1,2,100.000000
2025-10-01 15:28:53.769,1.353028983122959,0.09097145996227708,0.5682361630067064,1.76848173261097,1.233289610783586,-0.2390476665902966,-0.248180996318325,1.546042098177828,1.372374123722079,0.3943130151552642,0.08760050520244284,1.50336713278083,1.27371800064213,1.158449563985633,0.5616568840291331,1.39132123710713,0.7960440052049448,1.476821837878335,0.3038301815992273,1.143826442727972,847.3626373626374,822.3809523809524,811.9047619047619,820.3663003663004,807.8754578754579,738.5714285714286,-0.178589,0.035522,0.972961,-0.433655,-0.979462,-0.792542,422502344.322344,374124102.564103,2946227.106227,88.415840,1,2,1,1,2,100.000000
2025-10-01 15:28:53.769,1.353028983122959,0.09097145996227708,0.5682361630067064,1.76848173261097,1.233289610783586,-0.2390476665902966,-0.248180996318325,1.546042098177828,1.372374123722079,0.3943130151552642,0.08760050520244284,1.50336713278083,1.27371800064213,1.158449563985633,0.5616568840291331,1.39132123710713,0.7960440052049448,1.476821837878335,0.3038301815992273,1.143826442727972,831.2454212454213,787.3260073260074,801.8315018315019,803.040293040293,824.3956043956044,767.1794871794872,-0.178589,0.035522,0.972961,-0.433655,-0.979462,-0.792542,422502344.322344,374124102.564103,2946227.106227,88.415840,1,2,1,1,2,100.000000
2025-10-01 15:28:53.770,1.353028983122959,0.09097145996227708,0.5682361630067064,1.76848173261097,1.233289610783586,-0.2390476665902966,-0.248180996318325,1.546042098177828,1.372374123722079,0.3943130151552642,0.08760050520244284,1.50336713278083,1.27371800064213,1.158449563985633,0.5616568840291331,1.39132123710713,0.7960440052049448,1.476821837878335,0.3038301815992273,1.143826442727972,819.5604395604396,804.6520146520147,793.7728937728938,794.1758241758242,816.3369963369963,624.1391941391942,-0.178589,0.035522,0.972961,-0.433655,-0.979462,-0.792542,422502344.322344,374124102.564103,2946227.106227,88.415840,1,2,1,1,2,100.000000
2025-10-01 15:28:53.770,1.353028983122959,0.09097145996227708,0.5682361630067064,1.76848173261097,1.233289610783586,-0.2390476665902966,-0.248180996318325,1.546042098177828,1.372374123722079,0.3943130151552642,0.08760050520244284,1.50336713278083,1.27371800064213,1.158449563985633,0.5616568840291331,1.39132123710713,0.7960440052049448,1.476821837878335,0.3038301815992273,1.143826442727972,848.1684981684982,973.4798534798535,804.2490842490843,824.7985347985348,813.919413919414,919.8901098901099,-0.178589,0.035522,0.972961,-0.433655,-0.979462,-0.792542,422502344.322344,374124102.564103,2946227.106227,88.415840,1,2,1,1,2,100.000000
2025-10-01 15:28:53.770,1.353028983122959,0.09097145996227708,0.5682361630067064,1.76848173261097,1.233289610783586,-0.2390476665902966,-0.248180996318325,1.546042098177828,1.372374123722079,0.3943130151552642,0.08760050520244284,1.50336713278083,1.27371800064213,1.158449563985633,0.5616568840291331,1.39132123710713,0.7960440052049448,1.476821837878335,0.3038301815992273,1.143826442727972,863.8827838827839,819.96336996337,806.6666666666667,842.5274725274726,819.1575091575091,1255.128205128205,-0.178589,0.035522,0.972961,-0.433655,-0.979462,-0.792542,422502344.322344,374124102.564103,2946227.106227,88.415840,1,2,1,1,2,100.000000
2025-10-01 15:28:53.770,1.353028983122959,0.09097145996227708,0.5682361630067064,1.76848173261097,1.233289610783586,-0.2390476665902966,-0.248180996318325,1.546042098177828,1.372374123722079,0.3943130151552642,0.08760050520244284,1.50336713278083,1.27371800064213,1.158449563985633,0.5616568840291331,1.39132123710713,0.7960440052049448,1.476821837878335,0.3038301815992273,1.143826442727972,843.3333333333334,645.0915750915751,799.4139194139194,810.2930402930403,831.2454212454213,909.8168498168499,-0.178589,0.035522,0.972961,-0.433655,-0.979462,-0.792542,422502344.322344,374124102.564103,2946227.106227,88.415840,1,2,1,1,2,100.000000
2025-10-01 15:28:53.770,1.353028983122959,0.09097145996227708,0.5682361630067064,1.76848173261097,1.233289610783586,-0.2390476665902966,-0.248180996318325,1.546042098177828,1.372374123722079,0.3943130151552642,0.08760050520244284,1.50336713278083,1.27371800064213,1.158449563985633,0.5616568840291331,1.39132123710713,0.7960440052049448,1.476821837878335,0.3038301815992273,1.143826442727972,833.6630036630037,786.1172161172161,800.6227106227107,793.7728937728938,877.985347985348,695.4578754578755,-0.178589,0.035522,0.972961,-0.433655,-0.979462,-0.792542,422502344.322344,374124102.564103,2946227.106227,88.415840,1,2,1,1,2,100.000000
2025-10-01 15:28:53.771,1.353028983122959,0.09097145996227708,0.5682361630067064,1.76848173261097,1.233289610783586,-0.2390476665902966,-0.248180996318325,1.546042098177828,1.372374123722079,0.3943130151552642,0.08760050520244284,1.50336713278083,1.27371800064213,1.158449563985633,0.5616568840291331,1.39132123710713,0.7960440052049448,1.476821837878335,0.3038301815992273,1.143826442727972,840.5128205128206,834.4688644688645,801.8315018315019,811.9047619047619,855.8241758241759,718.4249084249085,-0.178589,0.035522,0.972961,-0.433655,-0.979462,-0.792542,422502344.322344,374124102.564103,2946227.106227,88.415840,1,2,1,1,2,100.000000
2025-10-01 15:28:53.771,1.353028983122959,0.09097145996227708,0.5682361630067064,1.76848173261097,1.233289610783586,-0.2390476665902966,-0.248180996318325,1.546042098177828,1.372374123722079,0.3943130151552642,0.08760050520244284,1.50336713278083,1.27371800064213,1.158449563985633,0.5616568840291331,1.39132123710713,0.7960440052049448,1.476821837878335,0.3038301815992273,1.143826442727972,853.8095238095239,853.4065934065934,796.996336996337,825.6043956043957,830.0366300366301,757.1062271062272,-0.178589,0.035522,0.972961,-0.433655,-0.979462,-0.792542,422502344.322344,374124102.564103,2946227.106227,88.415840,1,2,1,1,2,100.000000
2025-10-01 15:28:53.771,1.353028983122959,0.09097145996227708,0.5682361630067064,1.76848173261097,1.233289610783586,-0.2390476665902966,-0.248180996318325,1.546042098177828,1.372374123722079,0.3943130151552642,0.08760050520244284,1.50336713278083,1.27371800064213,1.158449563985633,0.5616568840291331,1.39132123710713,0.7960440052049448,1.476821837878335,0.3038301815992273,1.143826442727972,842.9304029304029,777.2527472527473,796.996336996337,805.4578754578755,831.2454212454213,759.92673992674,-0.178589,0.035522,0.972961,-0.433655,-0.979462,-0.792542,422502344.322344,374124102.564103,2946227.106227,88.415840,1,2,1,1,2,100.000000
2025-10-01 15:28:53.771,1.353028983122959,0.09097145996227708,0.5682361630067064,1.76848173261097,1.233289610783586,-0.2390476665902966,-0.248180996318325,1.546042098177828,1.372374123722079,0.3943130151552642,0.08760050520244284,1.50336713278083,1.27371800064213,1.158449563985633,0.5616568840291331,1.39132123710713,0.7960440052049448,1.476821837878335,0.3038301815992273,1.143826442727972,823.992673992674,855.8241758241759,799.0109890109891,797.3992673992674,836.0805860805862,707.5457875457876,-0.178162,0.026123,0.978455,-0.590668,-0.882263,-0.485992,422502344.322344,374124102.564103,2946227.106227,88.415840,1,2,1,1,2,100.000000
2025-10-01 15:28:53.771,1.353028983122959,0.09097145996227708,0.5682361630067064,1.76848173261097,1.233289610783586,-0.2390476665902966,-0.248180996318325,1.546042098177828,1.372374123722079,0.3943130151552642,0.08760050520244284,1.50336713278083,1.27371800064213,1.158449563985633,0.5616568840291331,1.39132123710713,0.7960440052049448,1.476821837878335,0.3038301815992273,1.143826442727972,834.8717948717949,958.974358974359,802.6373626373627,829.2307692307693,859.8534798534798,898.1318681318681,-0.178162,0.026123,0.978455,-0.590668,-0.882263,-0.485992,422502344.322344,374124102.564103,2946227.106227,88.415840,1,2,1,1,2,100.000000
2025-10-01 15:28:53.772,1.353028983122959,0.09097145996227708,0.5682361630067064,1.76848173261097,1.233289610783586,-0.2390476665902966,-0.248180996318325,1.546042098177828,1.372374123722079,0.3943130151552642,0.08760050520244284,1.50336713278083,1.27371800064213,1.158449563985633,0.5616568840291331,1.39132123710713,0.7960440052049448,1.476821837878335,0.3038301815992273,1.143826442727972,850.989010989011,743.8095238095239,805.8608058608058,832.4542124542124,882.4175824175825,899.7435897435897,-0.178162,0.026123,0.978455,-0.590668,-0.882263,-0.485992,422502344.322344,374124102.564103,2946227.106227,88.415840,1,2,1,1,2,100.000000
2025-10-01 15:28:53.772,1.353028983122959,0.09097145996227708,0.5682361630067064,1.76848173261097,1.233289610783586,-0.2390476665902966,-0.248180996318325,1.546042098177828,1.372374123722079,0.3943130151552642,0.08760050520244284,1.50336713278083,1.27371800064213,1.158449563985633,0.5616568840291331,1.39132123710713,0.7960440052049448,1.476821837878335,0.3038301815992273,1.143826442727972,850.5860805860806,756.3003663003664,800.6227106227107,806.2637362637363,880,763.1501831501831,-0.178162,0.026123,0.978455,-0.590668,-0.882263,-0.485992,422502344.322344,374124102.564103,2946227.106227,88.415840,1,2,1,1,2,100.000000
2025-10-01 15:28:53.773,1.353028983122959,0.09097145996227708,0.5682361630067064,1.76848173261097,1.233289610783586,-0.2390476665902966,-0.248180996318325,1.546042098177828,1.372374123722079,0.3943130151552642,0.08760050520244284,1.50336713278083,1.27371800064213,1.158449563985633,0.5616568840291331,1.39132123710713,0.7960440052049448,1.476821837878335,0.3038301815992273,1.143826442727972,842.9304029304029,883.6263736263736,795.7875457875458,812.3076923076924,839.3040293040293,888.4615384615385,-0.178162,0.026123,0.978455,-0.590668,-0.882263,-0.485992,422502344.322344,374124102.564103,2946227.106227,88.415840,1,2,1,1,2,100.000000
2025-10-01 15:28:53.773,1.353028983122959,0.09097145996227708,0.5682361630067064,1.76848173261097,1.233289610783586,-0.2390476665902966,-0.248180996318325,1.546042098177828,1.372374123722079,0.3943130151552642,0.08760050520244284,1.50336713278083,1.27371800064213,1.158449563985633,0.5616568840291331,1.39132123710713,0.7960440052049448,1.476821837878335,0.3038301815992273,1.143826442727972,841.7216117216118,903.7728937728938,795.3846153846154,824.7985347985348,824.7985347985348,1137.472527472527,-0.178162,0.026123,0.978455,-0.590668,-0.882263,-0.485992,422502344.322344,374124102.564103,2946227.106227,88.415840,1,2,1,1,2,100.000000
2025-10-01 15:28:53.773,1.353028983122959,0.09097145996227708,0.5682361630067064,1.76848173261097,1.233289610783586,-0.2390476665902966,-0.248180996318325,1.546042098177828,1.372374123722079,0.3943130151552642,0.08760050520244284,1.50336713278083,1.27371800064213,1.158449563985633,0.5616568840291331,1.39132123710713,0.7960440052049448,1.476821837878335,0.3038301815992273,1.143826442727972,846.5567765567765,763.5531135531136,803.8461538461539,824.3956043956044,747.4358974358975,1078.644688644689,-0.178162,0.026123,0.978455,-0.590668,-0.882263,-0.485992,422502344.322344,374124102.564103,2946227.106227,88.415840,1,2,1,1,2,100.000000
2025-10-01 15:28:53.773,1.353028983122959,0.09097145996227708,0.5682361630067064,1.76848173261097,1.233289610783586,-0.2390476665902966,-0.248180996318325,1.546042098177828,1.372374123722079,0.3943130151552642,0.08760050520244284,1.50336713278083,1.27371800064213,1.158449563985633,0.5616568840291331,1.39132123710713,0.7960440052049448,1.476821837878335,0.3038301815992273,1.143826442727972,848.5714285714286,769.1941391941392,812.7106227106227,831.6483516483516,765.9706959706959,1035.128205128205,-0.178162,0.026123,0.978455,-0.590668,-0.882263,-0.485992,422502344.322344,374124102.564103,2946227.106227,88.415840,1,2,1,1,2,100.000000
2025-10-01 15:28:53.773,1.353028983122959,0.09097145996227708,0.5682361630067064,1.76848173261097,1.233289610783586,-0.2390476665902966,-0.248180996318325,1.546042098177828,1.372374123722079,0.3943130151552642,0.08760050520244284,1.50336713278083,1.27371800064213,1.158449563985633,0.5616568840291331,1.39132123710713,0.7960440052049448,1.476821837878335,0.3038301815992273,1.143826442727972,828.4249084249085,730.9157509157509,811.0989010989011,817.1428571428571,878.3882783882784,823.5897435897436,-0.178162,0.026123,0.978455,-0.590668,-0.882263,-0.485992,422502344.322344,374124102.564103,2946227.106227,88.415840,1,2,1,1,2,100.000000
2025-10-01 15:28:53.774,1.353028983122959,0.09097145996227708,0.5682361630067064,1.76848173261097,1.233289610783586,-0.2390476665902966,-0.248180996318325,1.546042098177828,1.372374123722079,0.3943130151552642,0.08760050520244284,1.50336713278083,1.27371800064213,1.158449563985633,0.5616568840291331,1.39132123710713,0.7960440052049448,1.476821837878335,0.3038301815992273,1.143826442727972,820.3663003663004,831.2454212454213,804.6520146520147,816.3369963369963,884.0293040293041,674.1025641025641,-0.178162,0.026123,0.978455,-0.590668,-0.882263,-0.485992,422502344.322344,374124102.564103,2946227.106227,88.415840,1,2,1,1,2,100.000000
2025-10-01 15:28:53.774,1.353028983122959,0.09097145996227708,0.5682361630067064,1.76848173261097,1.233289610783586,-0.2390476665902966,-0.248180996318325,1.546042098177828,1.372374123722079,0.3943130151552642,0.08760050520244284,1.50336713278083,1.27371800064213,1.158449563985633,0.5616568840291331,1.39132123710713,0.7960440052049448,1.476821837878335,0.3038301815992273,1.143826442727972,847.7655677655678,853.0036630036631,801.4285714285714,840.9157509157509,906.1904761904763,780.8791208791209,-0.178162,0.026123,0.978455,-0.590668,-0.882263,-0.485992,422502344.322344,374124102.564103,2946227.106227,88.415840,1,2,1,1,2,100.000000
2025-10-01 15:28:53.774,1.353028983122959,0.09097145996227708,0.5682361630067064,1.76848173261097,1.233289610783586,-0.2390476665902966,-0.248180996318325,1.546042098177828,1.372374123722079,0.3943130151552642,0.08760050520244284,1.50336713278083,1.27371800064213,1.158449563985633,0.5616568840291331,1.39132123710713,0.7960440052049448,1.476821837878335,0.3038301815992273,1.143826442727972,861.4652014652015,813.919413919414,803.8461538461539,844.9450549450549,958.5714285714286,834.8717948717949,-0.178162,0.026123,0.978455,-0.590668,-0.882263,-0.485992,422502344.322344,374124102.564103,2946227.106227,88.415840,1,2,1,1,2,100.000000
2025-10-01 15:28:53.775,1.353028983122959,0.09097145996227708,0.5682361630067064,1.76848173261097,1.233289610783586,-0.2390476665902966,-0.248180996318325,1.546042098177828,1.372374123722079,0.3943130151552642,0.08760050520244284,1.50336713278083,1.27371800064213,1.158449563985633,0.5616568840291331,1.39132123710713,0.7960440052049448,1.476821837878335,0.3038301815992273,1.143826442727972,854.6153846153846,855.4212454212454,804.6520146520147,832.4542124542124,1009.74358974359,794.1758241758242,-0.178162,0.026123,0.978455,-0.590668,-0.882263,-0.485992,422502344.322344,374166007.326007,2913186.813187,88.415840,1,2,1,1,2,100.000000
2025-10-01 15:28:53.775,1.353028983122959,0.09097145996227708,0.5682361630067064,1.76848173261097,1.233289610783586,-0.2390476665902966,-0.248180996318325,1.546042098177828,1.372374123722079,0.3943130151552642,0.08760050520244284,1.50336713278083,1.27371800064213,1.158449563985633,0.5616568840291331,1.39132123710713,0.7960440052049448,1.476821837878335,0.3038301815992273,1.143826442727972,860.6593406593407,882.014652014652,807.0695970695971,829.6336996336996,1041.575091575092,844.1391941391942,-0.178162,0.026123,0.978455,-0.590668,-0.882263,-0.485992,422502344.322344,374166007.326007,2913186.813187,88.415840,1,2,1,1,2,100.000000
2025-10-01 15:28:53.775,1.353028983122959,0.09097145996227708,0.5682361630067064,1.76848173261097,1.233289610783586,-0.2390476665902966,-0.248180996318325,1.546042098177828,1.372374123722079,0.3943130151552642,0.08760050520244284,1.50336713278083,1.27371800064213,1.158449563985633,0.5616568840291331,1.39132123710713,0.7960440052049448,1.476821837878335,0.3038301815992273,1.143826442727972,868.3150183150184,774.0293040293041,805.0549450549451,833.6630036630037,905.7875457875458,806.2637362637363,-0.178162,0.026123,0.978455,-0.590668,-0.882263,-0.485992,422502344.322344,374166007.326007,2913186.813187,88.415840,1,2,1,1,2,100.000000
2025-10-01 15:28:53.775,1.353028983122959,0.09097145996227708,0.5682361630067064,1.76848173261097,1.233289610783586,-0.2390476665902966,-0.248180996318325,1.546042098177828,1.372374123722079,0.3943130151552642,0.08760050520244284,1.50336713278083,1.27371800064213,1.158449563985633,0.5616568840291331,1.39132123710713,0.7960440052049448,1.476821837878335,0.3038301815992273,1.143826442727972,887.6556776556777,794.981684981685,798.2051282051282,847.3626373626374,819.1575091575091,712.7838827838829,-0.178162,0.026123,0.978455,-0.590668,-0.882263,-0.485992,422502344.322344,374166007.326007,2913186.813187,88.415840,1,2,1,1,2,100.000000
2025-10-01 15:28:53.776,1.353028983122959,0.09097145996227708,0.5682361630067064,1.76848173261097,1.233289610783586,-0.2390476665902966,-0.248180996318325,1.546042098177828,1.372374123722079,0.3943130151552642,0.08760050520244284,1.50336713278083,1.27371800064213,1.158449563985633,0.5616568840291331,1.39132123710713,0.7960440052049448,1.476821837878335,0.3038301815992273,1.143826442727972,890.0732600732601,861.4652014652015,801.4285714285714,842.9304029304029,843.3333333333334,718.4249084249085,-0.178162,0.026123,0.978455,-0.590668,-0.882263,-0.485992,422502344.322344,374166007.326007,2913186.813187,88.415840,1,2,1,1,2,100.000000
2025-10-01 15:28:53.776,1.353028983122959,0.09097145996227708,0.5682361630067064,1.76848173261097,1.233289610783586,-0.2390476665902966,-0.248180996318325,1.546042098177828,1.372374123722079,0.3943130151552642,0.08760050520244284,1.50336713278083,1.27371800064213,1.158449563985633,0.5616568840291331,1.39132123710713,0.7960440052049448,1.476821837878335,0.3038301815992273,1.143826442727972,880,970.2564102564103,803.8461538461539,841.7216117216118,813.1135531135532,1006.117216117216,-0.178162,0.026123,0.978455,-0.590668,-0.882263,-0.485992,422502344.322344,374166007.326007,2913186.813187,88.415840,1,2,1,1,2,100.000000
2025-10-01 15:28:53.776,1.353028983122959,0.09097145996227708,0.5682361630067064,1.76848173261097,1.233289610783586,-0.2390476665902966,-0.248180996318325,1.546042098177828,1.372374123722079,0.3943130151552642,0.08760050520244284,1.50336713278083,1.27371800064213,1.158449563985633,0.5616568840291331,1.39132123710713,0.7960440052049448,1.476821837878335,0.3038301815992273,1.143826442727972,877.5824175824176,838.901098901099,807.0695970695971,846.5567765567765,805.0549450549451,1226.520146520146,-0.178162,0.026123,0.978455,-0.590668,-0.882263,-0.485992,422502344.322344,374166007.326007,2913186.813187,88.415840,1,2,1,1,2,100.000000
2025-10-01 15:28:53.776,1.353028983122959,0.09097145996227708,0.5682361630067064,1.76848173261097,1.233289610783586,-0.2390476665902966,-0.248180996318325,1.546042098177828,1.372374123722079,0.3943130151552642,0.08760050520244284,1.50336713278083,1.27371800064213,1.158449563985633,0.5616568840291331,1.39132123710713,0.7960440052049448,1.476821837878335,0.3038301815992273,1.143826442727972,891.2820512820513,680.1465201465202,810.2930402930403,844.5421245421246,824.3956043956044,948.0952380952381,-0.178162,0.026123,0.978455,-0.590668,-0.882263,-0.485992,422502344.322344,374166007.326007,2913186.813187,88.415840,1,2,1,1,2,100.000000
2025-10-01 15:28:53.776,1.353028983122959,0.09097145996227708,0.5682361630067064,1.76848173261097,1.233289610783586,-0.2390476665902966,-0.248180996318325,1.546042098177828,1.372374123722079,0.3943130151552642,0.08760050520244284,1.50336713278083,1.27371800064213,1.158449563985633,0.5616568840291331,1.39132123710713,0.7960440052049448,1.476821837878335,0.3038301815992273,1.143826442727972,888.8644688644689,743.4065934065934,800.6227106227107,829.6336996336996,814.7252747252747,615.2747252747253,-0.178162,0.026123,0.978455,-0.590668,-0.882263,-0.485992,422502344.322344,374166007.326007,2913186.813187,88.415840,1,2,1,1,2,100.000000
2025-10-01 15:28:53.777,1.353028983122959,0.09097145996227708,0.5682361630067064,1.76848173261097,1.233289610783586,-0.2390476665902966,-0.248180996318325,1.546042098177828,1.372374123722079,0.3943130151552642,0.08760050520244284,1.50336713278083,1.27371800064213,1.158449563985633,0.5616568840291331,1.39132123710713,0.7960440052049448,1.476821837878335,0.3038301815992273,1.143826442727972,870.7326007326008,858.6446886446887,792.1611721611722,809.4871794871796,760.3296703296703,554.4322344322344,-0.178162,0.026123,0.978455,-0.590668,-0.882263,-0.485992,422502344.322344,374166007.326007,2913186.813187,88.415840,1,2,1,1,2,100.000000
2025-10-01 15:28:53.777,1.353028983122959,0.09097145996227708,0.5682361630067064,1.76848173261097,1.233289610783586,-0.2390476665902966,-0.248180996318325,1.546042098177828,1.372374123722079,0.3943130151552642,0.08760050520244284,1.50336713278083,1.27371800064213,1.158449563985633,0.5616568840291331,1.39132123710713,0.7960440052049448,1.476821837878335,0.3038301815992273,1.143826442727972,868.3150183150184,894.5054945054945,796.1904761904763,826.007326007326,844.9450549450549,718.4249084249085,-0.178162,0.026123,0.978455,-0.590668,-0.882263,-0.485992,422502344.322344,374166007.326007,2913186.813187,88.415840,1,2,1,1,2,100.000000
2025-10-01 15:28:53.777,1.353028983122959,0.09097145996227708,0.5682361630067064,1.76848173261097,1.233289610783586,-0.2390476665902966,-0.248180996318325,1.546042098177828,1.372374123722079,0.3943130151552642,0.08760050520244284,1.50336713278083,1.27371800064213,1.158449563985633,0.5616568840291331,1.39132123710713,0.7960440052049448,1.476821837878335,0.3038301815992273,1.143826442727972,888.8644688644689,805.4578754578755,801.8315018315019,855.0183150183151,895.7142857142858,790.952380952381,-0.178162,0.026123,0.978455,-0.590668,-0.882263,-0.485992,422502344.322344,374166007.326007,2913186.813187,88.415840,1,2,1,1,2,100.000000
2025-10-01 15:28:53.777,1.353028983122959,0.09097145996227708,0.5682361630067064,1.76848173261097,1.233289610783586,-0.2390476665902966,-0.248180996318325,1.546042098177828,1.372374123722079,0.3943130151552642,0.08760050520244284,1.50336713278083,1.27371800064213,1.158449563985633,0.5616568840291331,1.39132123710713,0.7960440052049448,1.476821837878335,0.3038301815992273,1.143826442727972,879.5970695970697,793.7728937728938,805.8608058608058,836.0805860805862,869.1208791208792,658.3882783882784,-0.175659,0.034912,0.971924,0.052338,-1.727142,0.598145,422502344.322344,374166007.326007,2913186.813187,88.415840,1,2,1,1,2,100.000000
2025-10-01 15:28:53.777,1.353028983122959,0.09097145996227708,0.5682361630067064,1.76848173261097,1.233289610783586,-0.2390476665902966,-0.248180996318325,1.546042098177828,1.372374123722079,0.3943130151552642,0.08760050520244284,1.50336713278083,1.27371800064213,1.158449563985633,0.5616568840291331,1.39132123710713,0.7960440052049448,1.476821837878335,0.3038301815992273,1.143826442727972,853.8095238095239,898.5347985347986,808.2783882783883,812.3076923076924,926.3369963369963,722.0512820512821,-0.175659,0.034912,0.971924,0.052338,-1.727142,0.598145,422502344.322344,374166007.326007,2913186.813187,88.415840,1,2,1,1,2,100.000000
2025-10-01 15:28:53.778,1.353028983122959,0.09097145996227708,0.5682361630067064,1.76848173261097,1.233289610783586,-0.2390476665902966,-0.248180996318325,1.546042098177828,1.372374123722079,0.3943130151552642,0.08760050520244284,1.50336713278083,1.27371800064213,1.158449563985633,0.5616568840291331,1.39132123710713,0.7960440052049448,1.476821837878335,0.3038301815992273,1.143826442727972,834.0659340659341,833.6630036630037,800.6227106227107,798.6080586080586,915.0549450549451,852.1978021978023,-0.175659,0.034912,0.971924,0.052338,-1.727142,0.598145,422502344.322344,374166007.326007,2913186.813187,88.415840,1,2,1,1,2,100.000000
2025-10-01 15:28:53.778,1.353028983122959,0.09097145996227708,0.5682361630067064,1.76848173261097,1.233289610783586,-0.2390476665902966,-0.248180996318325,1.546042098177828,1.372374123722079,0.3943130151552642,0.08760050520244284,1.50336713278083,1.27371800064213,1.158449563985633,0.5616568840291331,1.39132123710713,0.7960440052049448,1.476821837878335,0.3038301815992273,1.143826442727972,834.8717948717949,767.5824175824176,794.981684981685,805.4578754578755,906.996336996337,822.7838827838829,-0.175659,0.034912,0.971924,0.052338,-1.727142,0.598145,422502344.322344,374166007.326007,2913186.813187,88.415840,1,2,1,1,2,100.000000
2025-10-01 15:28:53.778,1.353028983122959,0.09097145996227708,0.5682361630067064,1.76848173261097,1.233289610783586,-0.2390476665902966,-0.248180996318325,1.546042098177828,1.372374123722079,0.3943130151552642,0.08760050520244284,1.50336713278083,1.27371800064213,1.158449563985633,0.5616568840291331,1.39132123710713,0.7960440052049448,1.476821837878335,0.3038301815992273,1.143826442727972,861.8681318681319,950.5128205128206,790.5494505494506,825.2014652014652,911.0256410256411,903.3699633699634,-0.175659,0.034912,0.971924,0.052338,-1.727142,0.598145,422502344.322344,374166007.326007,2913186.813187,88.415840,1,2,1,1,2,100.000000
2025-10-01 15:28:53.779,1.353028983122959,0.09097145996227708,0.5682361630067064,1.76848173261097,1.233289610783586,-0.2390476665902966,-0.248180996318325,1.546042098177828,1.372374123722079,0.3943130151552642,0.08760050520244284,1.50336713278083,1.27371800064213,1.158449563985633,0.5616568840291331,1.39132123710713,0.7960440052049448,1.476821837878335,0.3038301815992273,1.143826442727972,878.7912087912089,1034.322344322344,791.3553113553114,831.6483516483516,906.996336996337,1215.238095238095,-0.175659,0.034912,0.971924,0.052338,-1.727142,0.598145,422502344.322344,374166007.326007,2913186.813187,88.415840,1,2,1,1,2,100.000000
2025-10-01 15:28:53.779,1.353028983122959,0.09097145996227708,0.5682361630067064,1.76848173261097,1.233289610783586,-0.2390476665902966,-0.248180996318325,1.546042098177828,1.372374123722079,0.3943130151552642,0.08760050520244284,1.50336713278083,1.27371800064213,1.158449563985633,0.5616568840291331,1.39132123710713,0.7960440052049448,1.476821837878335,0.3038301815992273,1.143826442727972,841.7216117216118,726.8864468864469,791.3553113553114,802.6373626373627,935.6043956043957,1279.70695970696,-0.175659,0.034912,0.971924,0.052338,-1.727142,0.598145,422502344.322344,374166007.326007,2913186.813187,88.415840,1,2,1,1,2,100.000000
2025-10-01 15:28:53.779,1.353028983122959,0.09097145996227708,0.5682361630067064,1.76848173261097,1.233289610783586,-0.2390476665902966,-0.248180996318325,1.546042098177828,1.372374123722079,0.3943130151552642,0.08760050520244284,1.50336713278083,1.27371800064213,1.158449563985633,0.5616568840291331,1.39132123710713,0.7960440052049448,1.476821837878335,0.3038301815992273,1.143826442727972,820.7692307692308,767.985347985348,790.1465201465202,793.3699633699634,894.908424908425,1215.238095238095,-0.175659,0.034912,0.971924,0.052338,-1.727142,0.598145,422502344.322344,374166007.326007,2913186.813187,88.415840,1,2,1,1,2,100.000000
2025-10-01 15:28:53.779,1.353028983122959,0.09097145996227708,0.5682361630067064,1.76848173261097,1.233289610783586,-0.2390476665902966,-0.248180996318325,1.546042098177828,1.372374123722079,0.3943130151552642,0.08760050520244284,1.50336713278083,1.27371800064213,1.158449563985633,0.5616568840291331,1.39132123710713,0.7960440052049448,1.476821837878335,0.3038301815992273,1.143826442727972,839.3040293040293,747.8388278388279,794.1758241758242,809.0842490842491,851.7948717948718,1041.575091575092,-0.175659,0.034912,0.971924,0.052338,-1.727142,0.598145,422502344.322344,374166007.326007,2913186.813187,88.415840,1,2,1,1,2,100.000000
2025-10-01 15:28:53.779,1.353028983122959,0.09097145996227708,0.5682361630067064,1.76848173261097,1.233289610783586,-0.2390476665902966,-0.248180996318325,1.546042098177828,1.372374123722079,0.3943130151552642,0.08760050520244284,1.50336713278083,1.27371800064213,1.158449563985633,0.5616568840291331,1.39132123710713,0.7960440052049448,1.476821837878335,0.3038301815992273,1.143826442727972,855.4212454212454,696.2637362637363,792.967032967033,802.6373626373627,824.7985347985348,712.3809523809524,-0.175659,0.034912,0.971924,0.052338,-1.727142,0.598145,422502344.322344,374166007.326007,2913186.813187,88.415840,1,2,1,1,2,100.000000
2025-10-01 15:28:53.780,1.353028983122959,0.09097145996227708,0.5682361630067064,1.76848173261097,1.233289610783586,-0.2390476665902966,-0.248180996318325,1.546042098177828,1.372374123722079,0.3943130151552642,0.08760050520244284,1.50336713278083,1.27371800064213,1.158449563985633,0.5616568840291331,1.39132123710713,0.7960440052049448,1.476821837878335,0.3038301815992273,1.143826442727972,860.6593406593407,824.3956043956044,798.2051282051282,809.0842490842491,852.6007326007326,701.5018315018315,-0.175659,0.034912,0.971924,0.052338,-1.727142,0.598145,422502344.322344,374166007.326007,2913186.813187,88.415840,1,2,1,1,2,100.000000
2025-10-01 15:28:53.780,1.353028983122959,0.09097145996227708,0.5682361630067064,1.76848173261097,1.233289610783586,-0.2390476665902966,-0.248180996318325,1.546042098177828,1.372374123722079,0.3943130151552642,0.08760050520244284,1.50336713278083,1.27371800064213,1.158449563985633,0.5616568840291331,1.39132123710713,0.7960440052049448,1.476821837878335,0.3038301815992273,1.143826442727972,863.8827838827839,820.7692307692308,805.4578754578755,817.5457875457876,863.8827838827839,768.3882783882784,-0.175659,0.034912,0.971924,0.052338,-1.727142,0.598145,422502344.322344,374166007.326007,2913186.813187,88.415840,1,2,1,1,2,100.000000
2025-10-01 15:28:53.781,1.353028983122959,0.09097145996227708,0.5682361630067064,1.76848173261097,1.233289610783586,-0.2390476665902966,-0.248180996318325,1.546042098177828,1.372374123722079,0.3943130151552642,0.08760050520244284,1.50336713278083,1.27371800064213,1.158449563985633,0.5616568840291331,1.39132123710713,0.7960440052049448,1.476821837878335,0.3038301815992273,1.143826442727972,891.2820512820513,828.4249084249085,803.4432234432235,840.5128205128206,858.6446886446887,731.3186813186813,-0.171509,0.036987,0.978027,-0.074768,-1.517792,0.732727,422502344.322344,373962930.402930,2908351.648352,88.415840,1,2,1,1,2,100.000000
2025-10-01 15:28:53.781,1.353028983122959,0.09097145996227708,0.5682361630067064,1.76848173261097,1.233289610783586,-0.2390476665902966,-0.248180996318325,1.546042098177828,1.372374123722079,0.3943130151552642,0.08760050520244284,1.50336713278083,1.27371800064213,1.158449563985633,0.5616568840291331,1.39132123710713,0.7960440052049448,1.476821837878335,0.3038301815992273,1.143826442727972,906.1904761904763,830.4395604395604,804.6520146520147,841.7216117216118,845.3479853479854,733.7362637362637,-0.171509,0.036987,0.978027,-0.074768,-1.517792,0.732727,422502344.322344,373962930.402930,2908351.648352,88.415840,1,2,1,1,2,100.000000
2025-10-01 15:28:53.781,1.353028983122959,0.09097145996227708,0.5682361630067064,1.76848173261097,1.233289610783586,-0.2390476665902966,-0.248180996318325,1.546042098177828,1.372374123722079,0.3943130151552642,0.08760050520244284,1.50336713278083,1.27371800064213,1.158449563985633,0.5616568840291331,1.39132123710713,0.7960440052049448,1.476821837878335,0.3038301815992273,1.143826442727972,891.2820512820513,818.7545787545788,805.8608058608058,819.5604395604396,832.8571428571429,784.9084249084249,-0.171509,0.036987,0.978027,-0.074768,-1.517792,0.732727,422502344.322344,373962930.402930,2908351.648352,88.415840,1,2,1,1,2,100.000000
2025-10-01 15:28:53.782,1.353028983122959,0.09097145996227708,0.5682361630067064,1.76848173261097,1.233289610783586,-0.2390476665902966,-0.248180996318325,1.546042098177828,1.372374123722079,0.3943130151552642,0.08760050520244284,1.50336713278083,1.27371800064213,1.158449563985633,0.5616568840291331,1.39132123710713,0.7960440052049448,1.476821837878335,0.3038301815992273,1.143826442727972,875.9706959706959,817.5457875457876,807.0695970695971,830.0366300366301,896.9230769230769,830.0366300366301,-0.171509,0.036987,0.978027,-0.074768,-1.517792,0.732727,422502344.322344,373962930.402930,2908351.648352,88.415840,1,2,1,1,2,100.000000
2025-10-01 15:28:53.782,1.353028983122959,0.09097145996227708,0.5682361630067064,1.76848173261097,1.233289610783586,-0.2390476665902966,-0.248180996318325,1.546042098177828,1.372374123722079,0.3943130151552642,0.08760050520244284,1.50336713278083,1.27371800064213,1.158449563985633,0.5616568840291331,1.39132123710713,0.7960440052049448,1.476821837878335,0.3038301815992273,1.143826442727972,882.4175824175825,901.3553113553114,805.8608058608058,855.4212454212454,957.3626373626374,880.8058608058608,-0.171509,0.036987,0.978027,-0.074768,-1.517792,0.732727,422502344.322344,373962930.402930,2908351.648352,88.415840,1,2,1,1,2,100.000000
2025-10-01 15:28:53.782,1.353028983122959,0.09097145996227708,0.5682361630067064,1.76848173261097,1.233289610783586,-0.2390476665902966,-0.248180996318325,1.546042098177828,1.372374123722079,0.3943130151552642,0.08760050520244284,1.50336713278083,1.27371800064213,1.158449563985633,0.5616568840291331,1.39132123710713,0.7960440052049448,1.476821837878335,0.3038301815992273,1.143826442727972,901.3553113553114,938.021978021978,802.6373626373627,857.8388278388279,913.040293040293,1088.315018315018,-0.171509,0.036987,0.978027,-0.074768,-1.517792,0.732727,422502344.322344,373962930.402930,2908351.648352,88.415840,1,2,1,1,2,100.000000
2025-10-01 15:28:53.782,1.353028983122959,0.09097145996227708,0.5682361630067064,1.76848173261097,1.233289610783586,-0.2390476665902966,-0.248180996318325,1.546042098177828,1.372374123722079,0.3943130151552642,0.08760050520244284,1.50336713278083,1.27371800064213,1.158449563985633,0.5616568840291331,1.39132123710713,0.7960440052049448,1.476821837878335,0.3038301815992273,1.143826442727972,894.1025641025641,774.4322344322345,803.040293040293,845.7509157509157,846.1538461538462,1183.003663003663,-0.171509,0.036987,0.978027,-0.074768,-1.517792,0.732727,422502344.322344,373962930.402930,2908351.648352,88.415840,1,2,1,1,2,100.000000
2025-10-01 15:28:53.782,1.353028983122959,0.09097145996227708,0.5682361630067064,1.76848173261097,1.233289610783586,-0.2390476665902966,-0.248180996318325,1.546042098177828,1.372374123722079,0.3943130151552642,0.08760050520244284,1.50336713278083,1.27371800064213,1.158449563985633,0.5616568840291331,1.39132123710713,0.7960440052049448,1.476821837878335,0.3038301815992273,1.143826442727972,862.6739926739926,683.7728937728938,801.025641025641,823.992673992674,831.2454212454213,985.9706959706961,-0.171509,0.036987,0.978027,-0.074768,-1.517792,0.732727,422502344.322344,373962930.402930,2908351.648352,88.415840,1,2,1,1,2,100.000000
2025-10-01 15:28:53.782,1.353028983122959,0.09097145996227708,0.5682361630067064,1.76848173261097,1.233289610783586,-0.2390476665902966,-0.248180996318325,1.546042098177828,1.372374123722079,0.3943130151552642,0.08760050520244284,1.50336713278083,1.27371800064213,1.158449563985633,0.5616568840291331,1.39132123710713,0.7960440052049448,1.476821837878335,0.3038301815992273,1.143826442727972,885.2380952380953,774.0293040293041,794.5787545787546,833.2600732600733,851.7948717948718,664.8351648351648,-0.171509,0.036987,0.978027,-0.074768,-1.517792,0.732727,422502344.322344,373962930.402930,2908351.648352,88.415840,1,2,1,1,2,100.000000
2025-10-01 15:28:53.783,1.353028983122959,0.09097145996227708,0.5682361630067064,1.76848173261097,1.233289610783586,-0.2390476665902966,-0.248180996318325,1.546042098177828,1.372374123722079,0.3943130151552642,0.08760050520244284,1.50336713278083,1.27371800064213,1.158449563985633,0.5616568840291331,1.39132123710713,0.7960440052049448,1.476821837878335,0.3038301815992273,1.143826442727972,918.6813186813187,891.6849816849817,800.2197802197802,859.8534798534798,872.3443223443223,659.1941391941392,-0.171509,0.036987,0.978027,-0.074768,-1.517792,0.732727,422502344.322344,373962930.402930,2908351.648352,88.415840,1,2,1,1,2,100.000000
2025-10-01 15:28:53.783,1.353028983122959,0.09097145996227708,0.5682361630067064,1.76848173261097,1.233289610783586,-0.2390476665902966,-0.248180996318325,1.546042098177828,1.372374123722079,0.3943130151552642,0.08760050520244284,1.50336713278083,1.27371800064213,1.158449563985633,0.5616568840291331,1.39132123710713,0.7960440052049448,1.476821837878335,0.3038301815992273,1.143826442727972,905.7875457875458,841.3186813186813,810.2930402930403,856.2271062271062,874.3589743589744,856.2271062271062,-0.171509,0.036987,0.978027,-0.074768,-1.517792,0.732727,422502344.322344,373962930.402930,2908351.648352,88.415840,1,2,1,1,2,100.000000
2025-10-01 15:28:53.783,1.353028983122959,0.09097145996227708,0.5682361630067064,1.76848173261097,1.233289610783586,-0.2390476665902966,-0.248180996318325,1.546042098177828,1.372374123722079,0.3943130151552642,0.08760050520244284,1.50336713278083,1.27371800064213,1.158449563985633,0.5616568840291331,1.39132123710713,0.7960440052049448,1.476821837878335,0.3038301815992273,1.143826442727972,896.1172161172161,780.0732600732601,811.5018315018315,856.6300366300367,874.3589743589744,1029.487179487179,-0.171509,0.036987,0.978027,-0.074768,-1.517792,0.732727,422502344.322344,373962930.402930,2908351.648352,88.415840,1,2,1,1,2,100.000000
2025-10-01 15:28:53.783,1.353028983122959,0.09097145996227708,0.5682361630067064,1.76848173261097,1.233289610783586,-0.2390476665902966,-0.248180996318325,1.546042098177828,1.372374123722079,0.3943130151552642,0.08760050520244284,1.50336713278083,1.27371800064213,1.158449563985633,0.5616568840291331,1.39132123710713,0.7960440052049448,1.476821837878335,0.3038301815992273,1.143826442727972,892.893772893773,725.2747252747253,806.2637362637363,839.7069597069598,867.5091575091575,836.4835164835165,-0.174805,0.038391,0.980103,-0.134583,-0.643005,-0.463562,422502344.322344,373962930.402930,2908351.648352,88.415840,1,2,1,1,2,100.000000
2025-10-01 15:28:53.783,1.353028983122959,0.09097145996227708,0.5682361630067064,1.76848173261097,1.233289610783586,-0.2390476665902966,-0.248180996318325,1.546042098177828,1.372374123722079,0.3943130151552642,0.08760050520244284,1.50336713278083,1.27371800064213,1.158449563985633,0.5616568840291331,1.39132123710713,0.7960440052049448,1.476821837878335,0.3038301815992273,1.143826442727972,873.1501831501831,822.3809523809524,799.4139194139194,822.3809523809524,854.2124542124542,695.0549450549451,-0.174805,0.038391,0.980103,-0.134583,-0.643005,-0.463562,422502344.322344,373962930.402930,2908351.648352,88.415840,1,2,1,1,2,100.000000
2025-10-01 15:28:53.784,1.353028983122959,0.09097145996227708,0.5682361630067064,1.76848173261097,1.233289610783586,-0.2390476665902966,-0.248180996318325,1.546042098177828,1.372374123722079,0.3943130151552642,0.08760050520244284,1.50336713278083,1.27371800064213,1.158449563985633,0.5616568840291331,1.39132123710713,0.7960440052049448,1.476821837878335,0.3038301815992273,1.143826442727972,855.8241758241759,817.948717948718,798.6080586080586,804.6520146520147,860.2564102564103,796.1904761904763,-0.174805,0.038391,0.980103,-0.134583,-0.643005,-0.463562,422502344.322344,373962930.402930,2908351.648352,88.415840,1,2,1,1,2,100.000000
2025-10-01 15:28:53.784,1.353028983122959,0.09097145996227708,0.5682361630067064,1.76848173261097,1.233289610783586,-0.2390476665902966,-0.248180996318325,1.546042098177828,1.372374123722079,0.3943130151552642,0.08760050520244284,1.50336713278083,1.27371800064213,1.158449563985633,0.5616568840291331,1.39132123710713,0.7960440052049448,1.476821837878335,0.3038301815992273,1.143826442727972,836.8864468864469,736.959706959707,800.2197802197802,795.7875457875458,828.021978021978,720.4395604395604,-0.174805,0.038391,0.980103,-0.134583,-0.643005,-0.463562,422502344.322344,373962930.402930,2908351.648352,88.415840,1,2,1,1,2,100.000000
2025-10-01 15:28:53.784,1.353028983122959,0.09097145996227708,0.5682361630067064,1.76848173261097,1.233289610783586,-0.2390476665902966,-0.248180996318325,1.546042098177828,1.372374123722079,0.3943130151552642,0.08760050520244284,1.50336713278083,1.27371800064213,1.158449563985633,0.5616568840291331,1.39132123710713,0.7960440052049448,1.476821837878335,0.3038301815992273,1.143826442727972,820.7692307692308,863.8827838827839,800.2197802197802,811.0989010989011,812.3076923076924,765.5677655677656,-0.174805,0.038391,0.980103,-0.134583,-0.643005,-0.463562,422502344.322344,373962930.402930,2908351.648352,88.415840,1,2,1,1,2,100.000000
2025-10-01 15:28:53.784,1.353028983122959,0.09097145996227708,0.5682361630067064,1.76848173261097,1.233289610783586,-0.2390476665902966,-0.248180996318325,1.546042098177828,1.372374123722079,0.3943130151552642,0.08760050520244284,1.50336713278083,1.27371800064213,1.158449563985633,0.5616568840291331,1.39132123710713,0.7960440052049448,1.476821837878335,0.3038301815992273,1.143826442727972,826.8131868131868,915.4578754578755,799.0109890109891,821.978021978022,792.967032967033,990.8058608058608,-0.174805,0.038391,0.980103,-0.134583,-0.643005,-0.463562,422502344.322344,373962930.402930,2908351.648352,88.415840,1,2,1,1,2,100.000000
2025-10-01 15:28:53.785,1.353028983122959,0.09097145996227708,0.5682361630067064,1.76848173261097,1.233289610783586,-0.2390476665902966,-0.248180996318325,1.546042098177828,1.372374123722079,0.3943130151552642,0.08760050520244284,1.50336713278083,1.27371800064213,1.158449563985633,0.5616568840291331,1.39132123710713,0.7960440052049448,1.476821837878335,0.3038301815992273,1.143826442727972,821.5750915750916,807.0695970695971,797.3992673992674,803.040293040293,753.8827838827839,1102.417582417582,-0.174805,0.038391,0.980103,-0.134583,-0.643005,-0.463562,422502344.322344,373962930.402930,2908351.648352,88.415840,1,2,1,1,2,100.000000
2025-10-01 15:28:53.785,1.353028983122959,0.09097145996227708,0.5682361630067064,1.76848173261097,1.233289610783586,-0.2390476665902966,-0.248180996318325,1.546042098177828,1.372374123722079,0.3943130151552642,0.08760050520244284,1.50336713278083,1.27371800064213,1.158449563985633,0.5616568840291331,1.39132123710713,0.7960440052049448,1.476821837878335,0.3038301815992273,1.143826442727972,802.6373626373627,793.3699633699634,799.4139194139194,776.4468864468864,817.5457875457876,1190.659340659341,-0.174805,0.038391,0.980103,-0.134583,-0.643005,-0.463562,422502344.322344,373962930.402930,2908351.648352,88.415840,1,2,1,1,2,100.000000
2025-10-01 15:28:53.785,1.353028983122959,0.09097145996227708,0.5682361630067064,1.76848173261097,1.233289610783586,-0.2390476665902966,-0.248180996318325,1.546042098177828,1.372374123722079,0.3943130151552642,0.08760050520244284,1.50336713278083,1.27371800064213,1.158449563985633,0.5616568840291331,1.39132123710713,0.7960440052049448,1.476821837878335,0.3038301815992273,1.143826442727972,787.7289377289378,679.7435897435897,799.8168498168499,759.92673992674,871.941391941392,929.5604395604396,-0.174805,0.038391,0.980103,-0.134583,-0.643005,-0.463562,422502344.322344,373962930.402930,2908351.648352,88.415840,1,2,1,1,2,100.000000
2025-10-01 15:28:53.785,1.353028983122959,0.09097145996227708,0.5682361630067064,1.76848173261097,1.233289610783586,-0.2390476665902966,-0.248180996318325,1.546042098177828,1.372374123722079,0.3943130151552642,0.08760050520244284,1.50336713278083,1.27371800064213,1.158449563985633,0.5616568840291331,1.39132123710713,0.7960440052049448,1.476821837878335,0.3038301815992273,1.143826442727972,806.6666666666667,737.7655677655678,796.1904761904763,777.6556776556777,832.0512820512821,653.1501831501831,-0.174805,0.038391,0.980103,-0.134583,-0.643005,-0.463562,422502344.322344,373962930.402930,2908351.648352,88.415840,1,2,1,1,2,100.000000
2025-10-01 15:28:53.786,1.353028983122959,0.09097145996227708,0.5682361630067064,1.76848173261097,1.233289610783586,-0.2390476665902966,-0.248180996318325,1.546042098177828,1.372374123722079,0.3943130151552642,0.08760050520244284,1.50336713278083,1.27371800064213,1.158449563985633,0.5616568840291331,1.39132123710713,0.7960440052049448,1.476821837878335,0.3038301815992273,1.143826442727972,822.3809523809524,821.978021978022,796.996336996337,793.7728937728938,839.7069597069598,699.0842490842491,-0.174805,0.038391,0.980103,-0.134583,-0.643005,-0.463562,422502344.322344,373962930.402930,2908351.648352,88.415840,1,2,1,1,2,100.000000
2025-10-01 15:28:53.786,1.353028983122959,0.09097145996227708,0.5682361630067064,1.76848173261097,1.233289610783586,-0.2390476665902966,-0.248180996318325,1.546042098177828,1.372374123722079,0.3943130151552642,0.08760050520244284,1.50336713278083,1.27371800064213,1.158449563985633,0.5616568840291331,1.39132123710713,0.7960440052049448,1.476821837878335,0.3038301815992273,1.143826442727972,813.5164835164835,783.2967032967033,801.4285714285714,784.1025641025641,840.9157509157509,707.948717948718,-0.174805,0.038391,0.980103,-0.134583,-0.643005,-0.463562,422502344.322344,373962930.402930,2908351.648352,88.415840,1,2,1,1,2,100.000000
2025-10-01 15:28:53.787,1.353028983122959,0.09097145996227708,0.5682361630067064,1.76848173261097,1.233289610783586,-0.2390476665902966,-0.248180996318325,1.546042098177828,1.372374123722079,0.3943130151552642,0.08760050520244284,1.50336713278083,1.27371800064213,1.158449563985633,0.5616568840291331,1.39132123710713,0.7960440052049448,1.476821837878335,0.3038301815992273,1.143826442727972,794.1758241758242,810.6959706959707,802.2344322344322,778.0586080586081,873.956043956044,686.996336996337,-0.174805,0.038391,0.980103,-0.134583,-0.643005,-0.463562,422502344.322344,373932307.692308,2968791.208791,88.415840,1,2,1,1,2,100.000000
2025-10-01 15:28:53.787,1.353028983122959,0.09097145996227708,0.5682361630067064,1.76848173261097,1.233289610783586,-0.2390476665902966,-0.248180996318325,1.546042098177828,1.372374123722079,0.3943130151552642,0.08760050520244284,1.50336713278083,1.27371800064213,1.158449563985633,0.5616568840291331,1.39132123710713,0.7960440052049448,1.476821837878335,0.3038301815992273,1.143826442727972,794.5787545787546,828.021978021978,797.8021978021978,782.4908424908425,847.3626373626374,641.4652014652015,-0.174805,0.038391,0.980103,-0.134583,-0.643005,-0.463562,422502344.322344,373932307.692308,2968791.208791,88.415840,1,2,1,1,2,100.000000
2025-10-01 15:28:53.787,1.353028983122959,0.09097145996227708,0.5682361630067064,1.76848173261097,1.233289610783586,-0.2390476665902966,-0.248180996318325,1.546042098177828,1.372374123722079,0.3943130151552642,0.08760050520244284,1.50336713278083,1.27371800064213,1.158449563985633,0.5616568840291331,1.39132123710713,0.7960440052049448,1.476821837878335,0.3038301815992273,1.143826442727972,825.2014652014652,921.5018315018315,796.996336996337,815.934065934066,868.3150183150184,924.7252747252747,-0.174805,0.038391,0.980103,-0.134583,-0.643005,-0.463562,422502344.322344,373932307.692308,2968791.208791,88.415840,1,2,1,1,2,100.000000
2025-10-01 15:28:53.787,1.353028983122959,0.09097145996227708,0.5682361630067064,1.76848173261097,1.233289610783586,-0.2390476665902966,-0.248180996318325,1.546042098177828,1.372374123722079,0.3943130151552642,0.08760050520244284,1.50336713278083,1.27371800064213,1.158449563985633,0.5616568840291331,1.39132123710713,0.7960440052049448,1.476821837878335,0.3038301815992273,1.143826442727972,814.3223443223443,782.4908424908425,796.5934065934066,811.0989010989011,894.1025641025641,1020.622710622711,-0.174805,0.038391,0.980103,-0.134583,-0.643005,-0.463562,422502344.322344,373932307.692308,2968791.208791,88.415840,1,2,1,1,2,100.000000
2025-10-01 15:28:53.788,1.353028983122959,0.09097145996227708,0.5682361630067064,1.76848173261097,1.233289610783586,-0.2390476665902966,-0.248180996318325,1.546042098177828,1.372374123722079,0.3943130151552642,0.08760050520244284,1.50336713278083,1.27371800064213,1.158449563985633,0.5616568840291331,1.39132123710713,0.7960440052049448,1.476821837878335,0.3038301815992273,1.143826442727972,774.8351648351648,713.1868131868132,793.7728937728938,770,842.9304029304029,629.7802197802198,-0.174805,0.038391,0.980103,-0.134583,-0.643005,-0.463562,422502344.322344,373932307.692308,2968791.208791,88.415840,1,2,1,1,2,100.000000
2025-10-01 15:28:53.788,1.353028983122959,0.09097145996227708,0.5682361630067064,1.76848173261097,1.233289610783586,-0.2390476665902966,-0.248180996318325,1.546042098177828,1.372374123722079,0.3943130151552642,0.08760050520244284,1.50336713278083,1.27371800064213,1.158449563985633,0.5616568840291331,1.39132123710713,0.7960440052049448,1.476821837878335,0.3038301815992273,1.143826442727972,788.5347985347986,979.92673992674,796.5934065934066,801.8315018315019,855.0183150183151,908.6080586080586,-0.174805,0.038391,0.980103,-0.134583,-0.643005,-0.463562,422502344.322344,373932307.692308,2968791.208791,88.415840,1,2,1,1,2,100.000000
2025-10-01 15:28:53.788,1.353028983122959,0.09097145996227708,0.5682361630067064,1.76848173261097,1.233289610783586,-0.2390476665902966,-0.248180996318325,1.546042098177828,1.372374123722079,0.3943130151552642,0.08760050520244284,1.50336713278083,1.27371800064213,1.158449563985633,0.5616568840291331,1.39132123710713,0.7960440052049448,1.476821837878335,0.3038301815992273,1.143826442727972,798.2051282051282,843.7362637362637,799.0109890109891,828.4249084249085,825.6043956043957,1210.805860805861,-0.174805,0.038391,0.980103,-0.134583,-0.643005,-0.463562,422502344.322344,373932307.692308,2968791.208791,88.415840,1,2,1,1,2,100.000000
2025-10-01 15:28:53.788,1.353028983122959,0.09097145996227708,0.5682361630067064,1.76848173261097,1.233289610783586,-0.2390476665902966,-0.248180996318325,1.546042098177828,1.372374123722079,0.3943130151552642,0.08760050520244284,1.50336713278083,1.27371800064213,1.158449563985633,0.5616568840291331,1.39132123710713,0.7960440052049448,1.476821837878335,0.3038301815992273,1.143826442727972,781.2820512820513,697.4725274725275,795.7875457875458,805.8608058608058,861.4652014652015,931.978021978022,-0.174805,0.038391,0.980103,-0.134583,-0.643005,-0.463562,422502344.322344,373932307.692308,2968791.208791,88.415840,1,2,1,1,2,100.000000
2025-10-01 15:28:53.788,1.353028983122959,0.09097145996227708,0.5682361630067064,1.76848173261097,1.233289610783586,-0.2390476665902966,-0.248180996318325,1.546042098177828,1.372374123722079,0.3943130151552642,0.08760050520244284,1.50336713278083,1.27371800064213,1.158449563985633,0.5616568840291331,1.39132123710713,0.7960440052049448,1.476821837878335,0.3038301815992273,1.143826442727972,771.2087912087912,764.3589743589744,801.4285714285714,783.2967032967033,927.948717948718,699.8901098901099,-0.174805,0.038391,0.980103,-0.134583,-0.643005,-0.463562,422502344.322344,373932307.692308,2968791.208791,88.415840,1,2,1,1,2,100.000000
2025-10-01 15:28:53.788,1.353028983122959,0.09097145996227708,0.5682361630067064,1.76848173261097,1.233289610783586,-0.2390476665902966,-0.248180996318325,1.546042098177828,1.372374123722079,0.3943130151552642,0.08760050520244284,1.50336713278083,1.27371800064213,1.158449563985633,0.5616568840291331,1.39132123710713,0.7960440052049448,1.476821837878335,0.3038301815992273,1.143826442727972,778.0586080586081,838.4981684981685,801.8315018315019,787.3260073260074,911.4285714285714,719.2307692307693,-0.174805,0.038391,0.980103,-0.134583,-0.643005,-0.463562,422502344.322344,373932307.692308,2968791.208791,88.415840,1,2,1,1,2,100.000000
2025-10-01 15:28:53.789,1.353028983122959,0.09097145996227708,0.5682361630067064,1.76848173261097,1.233289610783586,-0.2390476665902966,-0.248180996318325,1.546042098177828,1.372374123722079,0.3943130151552642,0.08760050520244284,1.50336713278083,1.27371800064213,1.158449563985633,0.5616568840291331,1.39132123710713,0.7960440052049448,1.476821837878335,0.3038301815992273,1.143826442727972,791.3553113553114,848.1684981684982,797.8021978021978,805.8608058608058,938.4249084249085,809.0842490842491,-0.174805,0.038391,0.980103,-0.134583,-0.643005,-0.463562,422502344.322344,373932307.692308,2968791.208791,88.415840,1,2,1,1,2,100.000000
2025-10-01 15:28:53.789,1.353028983122959,0.09097145996227708,0.5682361630067064,1.76848173261097,1.233289610783586,-0.2390476665902966,-0.248180996318325,1.546042098177828,1.372374123722079,0.3943130151552642,0.08760050520244284,1.50336713278083,1.27371800064213,1.158449563985633,0.5616568840291331,1.39132123710713,0.7960440052049448,1.476821837878335,0.3038301815992273,1.143826442727972,782.0879120879121,771.6117216117216,801.8315018315019,802.2344322344322,910.6227106227107,801.4285714285714,-0.174805,0.038391,0.980103,-0.134583,-0.643005,-0.463562,422502344.322344,373932307.692308,2968791.208791,88.415840,1,2,1,1,2,100.000000
2025-10-01 15:28:53.789,1.353028983122959,0.09097145996227708,0.5682361630067064,1.76848173261097,1.233289610783586,-0.2390476665902966,-0.248180996318325,1.546042098177828,1.372374123722079,0.3943130151552642,0.08760050520244284,1.50336713278083,1.27371800064213,1.158449563985633,0.5616568840291331,1.39132123710713,0.7960440052049448,1.476821837878335,0.3038301815992273,1.143826442727972,764.3589743589744,787.7289377289378,802.6373626373627,779.6703296703297,872.7472527472528,673.2967032967033,-0.176270,0.029724,0.978210,-0.261688,-0.059814,-0.478516,422502344.322344,373932307.692308,2968791.208791,88.415840,1,2,1,1,2,100.000000
2025-10-01 15:28:53.789,1.353028983122959,0.09097145996227708,0.5682361630067064,1.76848173261097,1.233289610783586,-0.2390476665902966,-0.248180996318325,1.546042098177828,1.372374123722079,0.3943130151552642,0.08760050520244284,1.50336713278083,1.27371800064213,1.158449563985633,0.5616568840291331,1.39132123710713,0.7960440052049448,1.476821837878335,0.3038301815992273,1.143826442727972,763.1501831501831,857.032967032967,797.3992673992674,770,869.92673992674,686.996336996337,-0.176270,0.029724,0.978210,-0.261688,-0.059814,-0.478516,422502344.322344,373932307.692308,2968791.208791,88.415840,1,2,1,1,2,100.000000
2025-10-01 15:28:53.790,1.353028983122959,0.09097145996227708,0.5682361630067064,1.76848173261097,1.233289610783586,-0.2390476665902966,-0.248180996318325,1.546042098177828,1.372374123722079,0.3943130151552642,0.08760050520244284,1.50336713278083,1.27371800064213,1.158449563985633,0.5616568840291331,1.39132123710713,0.7960440052049448,1.476821837878335,0.3038301815992273,1.143826442727972,780.8791208791209,833.2600732600733,797.8021978021978,781.2820512820513,849.3772893772895,789.3406593406594,-0.176270,0.029724,0.978210,-0.261688,-0.059814,-0.478516,422502344.322344,373932307.692308,2968791.208791,88.415840,1,2,1,1,2,100.000000
2025-10-01 15:28:53.790,1.353028983122959,0.09097145996227708,0.5682361630067064,1.76848173261097,1.233289610783586,-0.2390476665902966,-0.248180996318325,1.546042098177828,1.372374123722079,0.3943130151552642,0.08760050520244284,1.50336713278083,1.27371800064213,1.158449563985633,0.5616568840291331,1.39132123710713,0.7960440052049448,1.476821837878335,0.3038301815992273,1.143826442727972,782.0879120879121,804.6520146520147,798.6080586080586,786.9230769230769,884.4322344322345,804.6520146520147,-0.176270,0.029724,0.978210,-0.261688,-0.059814,-0.478516,422502344.322344,373932307.692308,2968791.208791,88.415840,1,2,1,1,2,100.000000
2025-10-01 15:28:53.790,1.353028983122959,0.09097145996227708,0.5682361630067064,1.76848173261097,1.233289610783586,-0.2390476665902966,-0.248180996318325,1.546042098177828,1.372374123722079,0.3943130151552642,0.08760050520244284,1.50336713278083,1.27371800064213,1.158449563985633,0.5616568840291331,1.39132123710713,0.7960440052049448,1.476821837878335,0.3038301815992273,1.143826442727972,773.6263736263736,867.1062271062272,801.8315018315019,774.8351648351648,956.1538461538462,813.5164835164835,-0.176270,0.029724,0.978210,-0.261688,-0.059814,-0.478516,422502344.322344,373932307.692308,2968791.208791,88.415840,1,2,1,1,2,100.000000
2025-10-01 15:28:53.790,1.353028983122959,0.09097145996227708,0.5682361630067064,1.76848173261097,1.233289610783586,-0.2390476665902966,-0.248180996318325,1.546042098177828,1.372374123722079,0.3943130151552642,0.08760050520244284,1.50336713278083,1.27371800064213,1.158449563985633,0.5616568840291331,1.39132123710713,0.7960440052049448,1.476821837878335,0.3038301815992273,1.143826442727972,765.1648351648352,926.3369963369963,803.8461538461539,781.6849816849817,940.4395604395605,1076.227106227106,-0.176270,0.029724,0.978210,-0.261688,-0.059814,-0.478516,422502344.322344,373932307.692308,2968791.208791,88.415840,1,2,1,1,2,100.000000
2025-10-01 15:28:53.790,1.353028983122959,0.09097145996227708,0.5682361630067064,1.76848173261097,1.233289610783586,-0.2390476665902966,-0.248180996318325,1.546042098177828,1.372374123722079,0.3943130151552642,0.08760050520244284,1.50336713278083,1.27371800064213,1.158449563985633,0.5616568840291331,1.39132123710713,0.7960440052049448,1.476821837878335,0.3038301815992273,1.143826442727972,765.5677655677656,797.8021978021978,799.8168498168499,799.0109890109891,849.3772893772895,1218.461538461539,-0.176270,0.029724,0.978210,-0.261688,-0.059814,-0.478516,422502344.322344,373932307.692308,2968791.208791,88.415840,1,2,1,1,2,100.000000
2025-10-01 15:28:53.791,1.353028983122959,0.09097145996227708,0.7763059164778096,1.76848173261097,1.233289610783586,-0.2390476665902966,0.0749029488940478,1.546042098177828,1.372374123722079,0.3943130151552642,0.1386290287919205,1.50336713278083,1.27371800064213,1.158449563985633,0.1657061512808209,1.39132123710713,0.7960440052049448,1.476821837878335,-0.107695605031616,1.143826442727972,784.5054945054945,807.4725274725275,803.4432234432235,823.5897435897436,853.4065934065934,1247.472527472527,-0.176270,0.029724,0.978210,-0.261688,-0.059814,-0.478516,422502344.322344,373932307.692308,2968791.208791,88.415840,1,2,1,1,2,100.000000
2025-10-01 15:28:53.791,1.353028983122959,0.09097145996227708,0.7763059164778096,1.76848173261097,1.233289610783586,-0.2390476665902966,0.0749029488940478,1.546042098177828,1.372374123722079,0.3943130151552642,0.1386290287919205,1.50336713278083,1.27371800064213,1.158449563985633,0.1657061512808209,1.39132123710713,0.7960440052049448,1.476821837878335,-0.107695605031616,1.143826442727972,780.4761904761905,727.6923076923077,808.2783882783883,808.2783882783883,896.1172161172161,1128.608058608059,-0.176270,0.029724,0.978210,-0.261688,-0.059814,-0.478516,422502344.322344,373932307.692308,2968791.208791,88.415840,1,2,1,1,2,100.000000
2025-10-01 15:28:53.792,1.353028983122959,0.09097145996227708,0.7763059164778096,1.76848173261097,1.233289610783586,-0.2390476665902966,0.0749029488940478,1.546042098177828,1.372374123722079,0.3943130151552642,0.1386290287919205,1.50336713278083,1.27371800064213,1.158449563985633,0.1657061512808209,1.39132123710713,0.7960440052049448,1.476821837878335,-0.107695605031616,1.143826442727972,759.5238095238095,667.6556776556777,809.4871794871796,771.6117216117216,882.8205128205128,774.0293040293041,-0.176270,0.029724,0.978210,-0.261688,-0.059814,-0.478516,422502344.322344,373932307.692308,2968791.208791,88.415840,1,2,1,1,2,100.000000
2025-10-01 15:28:53.792,1.353028983122959,0.09097145996227708,0.7763059164778096,1.76848173261097,1.233289610783586,-0.2390476665902966,0.0749029488940478,1.546042098177828,1.372374123722079,0.3943130151552642,0.1386290287919205,1.50336713278083,1.27371800064213,1.158449563985633,0.1657061512808209,1.39132123710713,0.7960440052049448,1.476821837878335,-0.107695605031616,1.143826442727972,755.8974358974359,790.5494505494506,806.6666666666667,781.6849816849817,849.3772893772895,666.4468864468864,-0.176270,0.029724,0.978210,-0.261688,-0.059814,-0.478516,422502344.322344,373932307.692308,2968791.208791,88.415840,1,2,1,1,2,100.000000
2025-10-01 15:28:53.792,1.353028983122959,0.09097145996227708,0.7763059164778096,1.76848173261097,1.233289610783586,-0.2390476665902966,0.0749029488940478,1.546042098177828,1.372374123722079,0.3943130151552642,0.1386290287919205,1.50336713278083,1.27371800064213,1.158449563985633,0.1657061512808209,1.39132123710713,0.7960440052049448,1.476821837878335,-0.107695605031616,1.143826442727972,783.2967032967033,826.8131868131868,803.040293040293,801.4285714285714,854.2124542124542,713.1868131868132,-0.176270,0.029724,0.978210,-0.261688,-0.059814,-0.478516,422502344.322344,373932307.692308,2968791.208791,88.415840,1,2,1,1,2,100.000000
2025-10-01 15:28:53.814,1.353028983122959,0.09097145996227708,0.7763059164778096,1.76848173261097,1.233289610783586,-0.2390476665902966,0.0749029488940478,1.546042098177828,1.372374123722079,0.3943130151552642,0.1386290287919205,1.50336713278083,1.27371800064213,1.158449563985633,0.1657061512808209,1.39132123710713,0.7960440052049448,1.476821837878335,-0.107695605031616,1.143826442727972,802.2344322344322,827.2161172161173,801.025641025641,791.3553113553114,887.6556776556777,650.3296703296703,-0.184937,0.022522,0.970947,0.007477,0.224304,0.112152,422502344.322344,374016923.076923,2939780.219780,88.415840,1,2,1,1,2,100.000000
2025-10-01 15:28:53.815,1.353028983122959,0.09097145996227708,0.7763059164778096,1.76848173261097,1.233289610783586,-0.2390476665902966,0.0749029488940478,1.546042098177828,1.372374123722079,0.3943130151552642,0.1386290287919205,1.50336713278083,1.27371800064213,1.158449563985633,0.1657061512808209,1.39132123710713,0.7960440052049448,1.476821837878335,-0.107695605031616,1.143826442727972,781.2820512820513,862.6739926739926,799.0109890109891,787.7289377289378,924.7252747252747,702.7106227106227,-0.184937,0.022522,0.970947,0.007477,0.224304,0.112152,422502344.322344,374016923.076923,2939780.219780,88.415840,1,2,1,1,2,100.000000
2025-10-01 15:28:53.815,1.353028983122959,0.09097145996227708,0.7763059164778096,1.76848173261097,1.233289610783586,-0.2390476665902966,0.0749029488940478,1.546042098177828,1.372374123722079,0.3943130151552642,0.1386290287919205,1.50336713278083,1.27371800064213,1.158449563985633,0.1657061512808209,1.39132123710713,0.7960440052049448,1.476821837878335,-0.107695605031616,1.143826442727972,759.92673992674,803.040293040293,797.3992673992674,772.8205128205128,892.893772893773,790.952380952381,-0.184937,0.022522,0.970947,0.007477,0.224304,0.112152,422502344.322344,374016923.076923,2939780.219780,88.415840,1,2,1,1,2,100.000000
2025-10-01 15:28:53.815,1.353028983122959,0.09097145996227708,0.7763059164778096,1.76848173261097,1.233289610783586,-0.2390476665902966,0.0749029488940478,1.546042098177828,1.372374123722079,0.3943130151552642,0.1386290287919205,1.50336713278083,1.27371800064213,1.158449563985633,0.1657061512808209,1.39132123710713,0.7960440052049448,1.476821837878335,-0.107695605031616,1.143826442727972,770,757.5091575091575,792.967032967033,771.6117216117216,817.1428571428571,699.0842490842491,-0.184937,0.022522,0.970947,0.007477,0.224304,0.112152,422502344.322344,374016923.076923,2939780.219780,88.415840,1,2,1,1,2,100.000000
2025-10-01 15:28:53.815,1.353028983122959,0.09097145996227708,0.7763059164778096,1.76848173261097,1.233289610783586,-0.2390476665902966,0.0749029488940478,1.546042098177828,1.372374123722079,0.3943130151552642,0.1386290287919205,1.50336713278083,1.27371800064213,1.158449563985633,0.1657061512808209,1.39132123710713,0.7960440052049448,1.476821837878335,-0.107695605031616,1.143826442727972,782.0879120879121,829.6336996336996,794.981684981685,789.3406593406594,790.952380952381,670.0732600732601,-0.184937,0.022522,0.970947,0.007477,0.224304,0.112152,422502344.322344,374016923.076923,2939780.219780,88.415840,1,2,1,1,2,100.000000
2025-10-01 15:28:53.816,1.353028983122959,0.09097145996227708,0.7763059164778096,1.76848173261097,1.233289610783586,-0.2390476665902966,0.0749029488940478,1.546042098177828,1.372374123722079,0.3943130151552642,0.1386290287919205,1.50336713278083,1.27371800064213,1.158449563985633,0.1657061512808209,1.39132123710713,0.7960440052049448,1.476821837878335,-0.107695605031616,1.143826442727972,793.3699633699634,960.5860805860806,801.4285714285714,806.2637362637363,880.8058608058608,1087.106227106227,-0.184937,0.022522,0.970947,0.007477,0.224304,0.112152,422502344.322344,374016923.076923,2939780.219780,88.415840,1,2,1,1,2,100.000000
2025-10-01 15:28:53.816,1.353028983122959,0.09097145996227708,0.7763059164778096,1.76848173261097,1.233289610783586,-0.2390476665902966,0.0749029488940478,1.546042098177828,1.372374123722079,0.3943130151552642,0.1386290287919205,1.50336713278083,1.27371800064213,1.158449563985633,0.1657061512808209,1.39132123710713,0.7960440052049448,1.476821837878335,-0.107695605031616,1.143826442727972,782.893772893773,770.4029304029305,801.8315018315019,803.4432234432235,908.2051282051282,1268.021978021978,-0.184937,0.022522,0.970947,0.007477,0.224304,0.112152,422502344.322344,374016923.076923,2939780.219780,88.415840,1,2,1,1,2,100.000000
2025-10-01 15:28:53.816,1.353028983122959,0.09097145996227708,0.7763059164778096,1.76848173261097,1.233289610783586,-0.2390476665902966,0.0749029488940478,1.546042098177828,1.372374123722079,0.3943130151552642,0.1386290287919205,1.50336713278083,1.27371800064213,1.158449563985633,0.1657061512808209,1.39132123710713,0.7960440052049448,1.476821837878335,-0.107695605031616,1.143826442727972,767.1794871794872,660.8058608058608,797.3992673992674,778.8644688644689,868.3150183150184,892.0879120879121,-0.184937,0.022522,0.970947,0.007477,0.224304,0.112152,422502344.322344,374016923.076923,2939780.219780,88.415840,1,2,1,1,2,100.000000
2025-10-01 15:28:53.816,1.353028983122959,0.09097145996227708,0.7763059164778096,1.76848173261097,1.233289610783586,-0.2390476665902966,0.0749029488940478,1.546042098177828,1.372374123722079,0.3943130151552642,0.1386290287919205,1.50336713278083,1.27371800064213,1.158449563985633,0.1657061512808209,1.39132123710713,0.7960440052049448,1.476821837878335,-0.107695605031616,1.143826442727972,782.0879120879121,802.6373626373627,799.0109890109891,778.8644688644689,873.1501831501831,624.5421245421246,-0.184937,0.022522,0.970947,0.007477,0.224304,0.112152,422502344.322344,374016923.076923,2939780.219780,88.415840,1,2,1,1,2,100.000000
2025-10-01 15:28:53.816,1.353028983122959,0.09097145996227708,0.7763059164778096,1.76848173261097,1.233289610783586,-0.2390476665902966,0.0749029488940478,1.546042098177828,1.372374123722079,0.3943130151552642,0.1386290287919205,1.50336713278083,1.27371800064213,1.158449563985633,0.1657061512808209,1.39132123710713,0.7960440052049448,1.476821837878335,-0.107695605031616,1.143826442727972,801.025641025641,915.4578754578755,800.2197802197802,794.5787545787546,822.3809523809524,786.5201465201466,-0.184937,0.022522,0.970947,0.007477,0.224304,0.112152,422502344.322344,374016923.076923,2939780.219780,88.415840,1,2,1,1,2,100.000000
2025-10-01 15:28:53.817,1.353028983122959,0.09097145996227708,0.7763059164778096,1.76848173261097,1.233289610783586,-0.2390476665902966,0.0749029488940478,1.546042098177828,1.372374123722079,0.3943130151552642,0.1386290287919205,1.50336713278083,1.27371800064213,1.158449563985633,0.1657061512808209,1.39132123710713,0.7960440052049448,1.476821837878335,-0.107695605031616,1.143826442727972,784.1025641025641,826.4102564102565,796.5934065934066,790.5494505494506,801.8315018315019,894.5054945054945,-0.184937,0.022522,0.970947,0.007477,0.224304,0.112152,422502344.322344,374016923.076923,2939780.219780,88.415840,1,2,1,1,2,100.000000
2025-10-01 15:28:53.817,1.353028983122959,0.09097145996227708,0.7763059164778096,1.76848173261097,1.233289610783586,-0.2390476665902966,0.0749029488940478,1.546042098177828,1.372374123722079,0.3943130151552642,0.1386290287919205,1.50336713278083,1.27371800064213,1.158449563985633,0.1657061512808209,1.39132123710713,0.7960440052049448,1.476821837878335,-0.107695605031616,1.143826442727972,773.6263736263736,738.974358974359,798.6080586080586,784.1025641025641,792.1611721611722,684.1758241758242,-0.184937,0.022522,0.970947,0.007477,0.224304,0.112152,422502344.322344,374016923.076923,2939780.219780,88.415840,1,2,1,1,2,100.000000
2025-10-01 15:28:53.817,1.353028983122959,0.09097145996227708,0.7763059164778096,1.76848173261097,1.233289610783586,-0.2390476665902966,0.0749029488940478,1.546042098177828,1.372374123722079,0.3943130151552642,0.1386290287919205,1.50336713278083,1.27371800064213,1.158449563985633,0.1657061512808209,1.39132123710713,0.7960440052049448,1.476821837878335,-0.107695605031616,1.143826442727972,799.4139194139194,836.4835164835165,803.040293040293,793.7728937728938,789.3406593406594,587.4725274725275,-0.182373,0.024597,0.971130,0.067291,-0.949554,0.171967,422502344.322344,374016923.076923,2939780.219780,88.415840,1,2,1,1,2,100.000000
2025-10-01 15:28:53.817,1.353028983122959,0.09097145996227708,0.7763059164778096,1.76848173261097,1.233289610783586,-0.2390476665902966,0.0749029488940478,1.546042098177828,1.372374123722079,0.3943130151552642,0.1386290287919205,1.50336713278083,1.27371800064213,1.158449563985633,0.1657061512808209,1.39132123710713,0.7960440052049448,1.476821837878335,-0.107695605031616,1.143826442727972,806.6666666666667,894.5054945054945,801.4285714285714,793.7728937728938,857.4358974358975,682.967032967033,-0.182373,0.024597,0.971130,0.067291,-0.949554,0.171967,422502344.322344,374016923.076923,2939780.219780,88.415840,1,2,1,1,2,100.000000
2025-10-01 15:28:53.817,1.353028983122959,0.09097145996227708,0.7763059164778096,1.76848173261097,1.233289610783586,-0.2390476665902966,0.0749029488940478,1.546042098177828,1.372374123722079,0.3943130151552642,0.1386290287919205,1.50336713278083,1.27371800064213,1.158449563985633,0.1657061512808209,1.39132123710713,0.7960440052049448,1.476821837878335,-0.107695605031616,1.143826442727972,805.8608058608058,834.0659340659341,803.4432234432235,788.5347985347986,894.908424908425,831.2454212454213,-0.182373,0.024597,0.971130,0.067291,-0.949554,0.171967,422502344.322344,374016923.076923,2939780.219780,88.415840,1,2,1,1,2,100.000000
2025-10-01 15:28:53.818,1.353028983122959,0.09097145996227708,0.7763059164778096,1.76848173261097,1.233289610783586,-0.2390476665902966,0.0749029488940478,1.546042098177828,1.372374123722079,0.3943130151552642,0.1386290287919205,1.50336713278083,1.27371800064213,1.158449563985633,0.1657061512808209,1.39132123710713,0.7960440052049448,1.476821837878335,-0.107695605031616,1.143826442727972,795.7875457875458,770.4029304029305,802.2344322344322,775.6410256410256,848.5714285714286,766.3736263736264,-0.182373,0.024597,0.971130,0.067291,-0.949554,0.171967,422502344.322344,374016923.076923,2939780.219780,88.415840,1,2,1,1,2,100.000000
2025-10-01 15:28:53.818,1.353028983122959,0.09097145996227708,0.7763059164778096,1.76848173261097,1.233289610783586,-0.2390476665902966,0.0749029488940478,1.546042098177828,1.372374123722079,0.3943130151552642,0.1386290287919205,1.50336713278083,1.27371800064213,1.158449563985633,0.1657061512808209,1.39132123710713,0.7960440052049448,1.476821837878335,-0.107695605031616,1.143826442727972,795.3846153846154,905.7875457875458,798.2051282051282,798.2051282051282,852.1978021978023,833.6630036630037,-0.182373,0.024597,0.971130,0.067291,-0.949554,0.171967,422502344.322344,374016923.076923,2939780.219780,88.415840,1,2,1,1,2,100.000000
2025-10-01 15:28:53.818,1.353028983122959,0.09097145996227708,0.7763059164778096,1.76848173261097,1.233289610783586,-0.2390476665902966,0.0749029488940478,1.546042098177828,1.372374123722079,0.3943130151552642,0.1386290287919205,1.50336713278083,1.27371800064213,1.158449563985633,0.1657061512808209,1.39132123710713,0.7960440052049448,1.476821837878335,-0.107695605031616,1.143826442727972,813.919413919414,948.901098901099,802.2344322344322,820.3663003663004,832.0512820512821,1108.058608058608,-0.182373,0.024597,0.971130,0.067291,-0.949554,0.171967,422502344.322344,374016923.076923,2939780.219780,88.415840,1,2,1,1,2,100.000000
2025-10-01 15:28:53.818,1.353028983122959,0.09097145996227708,0.7763059164778096,1.76848173261097,1.233289610783586,-0.2390476665902966,0.0749029488940478,1.546042098177828,1.372374123722079,0.3943130151552642,0.1386290287919205,1.50336713278083,1.27371800064213,1.158449563985633,0.1657061512808209,1.39132123710713,0.7960440052049448,1.476821837878335,-0.107695605031616,1.143826442727972,811.5018315018315,845.7509157509157,803.8461538461539,825.2014652014652,845.3479853479854,1313.553113553114,-0.182373,0.024597,0.971130,0.067291,-0.949554,0.171967,422502344.322344,374016923.076923,2939780.219780,88.415840,1,2,1,1,2,100.000000
2025-10-01 15:28:53.819,1.353028983122959,0.09097145996227708,0.7763059164778096,1.76848173261097,1.233289610783586,-0.2390476665902966,0.0749029488940478,1.546042098177828,1.372374123722079,0.3943130151552642,0.1386290287919205,1.50336713278083,1.27371800064213,1.158449563985633,0.1657061512808209,1.39132123710713,0.7960440052049448,1.476821837878335,-0.107695605031616,1.143826442727972,775.2380952380953,727.2893772893773,800.2197802197802,797.8021978021978,815.934065934066,1178.168498168498,-0.182373,0.024597,0.971130,0.067291,-0.949554,0.171967,422502344.322344,374016923.076923,2939780.219780,88.415840,1,2,1,1,2,100.000000
2025-10-01 15:28:53.819,1.353028983122959,0.09097145996227708,0.7763059164778096,1.76848173261097,1.233289610783586,-0.2390476665902966,0.0749029488940478,1.546042098177828,1.372374123722079,0.3943130151552642,0.1386290287919205,1.50336713278083,1.27371800064213,1.158449563985633,0.1657061512808209,1.39132123710713,0.7960440052049448,1.476821837878335,-0.107695605031616,1.143826442727972,764.7619047619048,714.3956043956044,797.3992673992674,777.2527472527473,771.2087912087912,718.4249084249085,-0.182373,0.024597,0.971130,0.067291,-0.949554,0.171967,422502344.322344,374016923.076923,2939780.219780,88.415840,1,2,1,1,2,100.000000
2025-10-01 15:28:53.819,1.353028983122959,0.09097145996227708,0.7010127881311385,1.76848173261097,1.233289610783586,-0.2390476665902966,0.05422625277653948,1.546042098177828,1.372374123722079,0.3943130151552642,0.1407632928774538,1.50336713278083,1.27371800064213,1.158449563985633,0.1482128175414922,1.39132123710713,0.7960440052049448,1.476821837878335,-0.0708843559870193,1.143826442727972,800.2197802197802,887.6556776556777,801.4285714285714,803.040293040293,871.941391941392,687.8021978021978,-0.182373,0.024597,0.971130,0.067291,-0.949554,0.171967,422502344.322344,374016923.076923,2939780.219780,88.415840,1,2,1,1,2,100.000000
2025-10-01 15:28:53.820,1.353028983122959,0.09097145996227708,0.7010127881311385,1.76848173261097,1.233289610783586,-0.2390476665902966,0.05422625277653948,1.546042098177828,1.372374123722079,0.3943130151552642,0.1407632928774538,1.50336713278083,1.27371800064213,1.158449563985633,0.1482128175414922,1.39132123710713,0.7960440052049448,1.476821837878335,-0.0708843559870193,1.143826442727972,800.6227106227107,823.1868131868132,802.6373626373627,807.4725274725275,925.5311355311355,836.4835164835165,-0.182373,0.024597,0.971130,0.067291,-0.949554,0.171967,422502344.322344,374016923.076923,2939780.219780,88.415840,1,2,1,1,2,100.000000
2025-10-01 15:28:53.820,1.353028983122959,0.09097145996227708,0.7010127881311385,1.76848173261097,1.233289610783586,-0.2390476665902966,0.05422625277653948,1.546042098177828,1.372374123722079,0.3943130151552642,0.1407632928774538,1.50336713278083,1.27371800064213,1.158449563985633,0.1482128175414922,1.39132123710713,0.7960440052049448,1.476821837878335,-0.0708843559870193,1.143826442727972,782.893772893773,780.0732600732601,799.8168498168499,794.1758241758242,951.7216117216118,818.3516483516484,-0.182373,0.024597,0.971130,0.067291,-0.949554,0.171967,422502344.322344,374016923.076923,2939780.219780,88.415840,1,2,1,1,2,100.000000
2025-10-01 15:28:53.821,1.353028983122959,0.09097145996227708,0.7010127881311385,1.76848173261097,1.233289610783586,-0.2390476665902966,0.05422625277653948,1.546042098177828,1.372374123722079,0.3943130151552642,0.1407632928774538,1.50336713278083,1.27371800064213,1.158449563985633,0.1482128175414922,1.39132123710713,0.7960440052049448,1.476821837878335,-0.0708843559870193,1.143826442727972,796.1904761904763,850.989010989011,794.981684981685,798.2051282051282,950.9157509157509,857.8388278388279,-0.182007,0.026855,0.973755,0.605621,-0.912170,0.142059,422502344.322344,374005641.025641,2876923.076923,88.415840,1,2,1,1,2,100.000000
2025-10-01 15:28:53.821,1.353028983122959,0.09097145996227708,0.7010127881311385,1.76848173261097,1.233289610783586,-0.2390476665902966,0.05422625277653948,1.546042098177828,1.372374123722079,0.3943130151552642,0.1407632928774538,1.50336713278083,1.27371800064213,1.158449563985633,0.1482128175414922,1.39132123710713,0.7960440052049448,1.476821837878335,-0.0708843559870193,1.143826442727972,812.3076923076924,808.6813186813187,795.3846153846154,809.8901098901099,859.4505494505495,944.0659340659341,-0.182007,0.026855,0.973755,0.605621,-0.912170,0.142059,422502344.322344,374005641.025641,2876923.076923,88.415840,1,2,1,1,2,100.000000
2025-10-01 15:28:53.821,1.353028983122959,0.09097145996227708,0.7010127881311385,1.76848173261097,1.233289610783586,-0.2390476665902966,0.05422625277653948,1.546042098177828,1.372374123722079,0.3943130151552642,0.1407632928774538,1.50336713278083,1.27371800064213,1.158449563985633,0.1482128175414922,1.39132123710713,0.7960440052049448,1.476821837878335,-0.0708843559870193,1.143826442727972,799.8168498168499,716.007326007326,803.8461538461539,806.2637362637363,845.3479853479854,844.5421245421246,-0.182007,0.026855,0.973755,0.605621,-0.912170,0.142059,422502344.322344,374005641.025641,2876923.076923,88.415840,1,2,1,1,2,100.000000
2025-10-01 15:28:53.822,1.353028983122959,0.09097145996227708,0.7010127881311385,1.76848173261097,1.233289610783586,-0.2390476665902966,0.05422625277653948,1.546042098177828,1.372374123722079,0.3943130151552642,0.1407632928774538,1.50336713278083,1.27371800064213,1.158449563985633,0.1482128175414922,1.39132123710713,0.7960440052049448,1.476821837878335,-0.0708843559870193,1.143826442727972,773.2234432234433,767.1794871794872,805.0549450549451,788.1318681318681,886.4468864468864,757.1062271062272,-0.182007,0.026855,0.973755,0.605621,-0.912170,0.142059,422502344.322344,374005641.025641,2876923.076923,88.415840,1,2,1,1,2,100.000000
2025-10-01 15:28:53.822,1.353028983122959,0.09097145996227708,0.7010127881311385,1.76848173261097,1.233289610783586,-0.2390476665902966,0.05422625277653948,1.546042098177828,1.372374123722079,0.3943130151552642,0.1407632928774538,1.50336713278083,1.27371800064213,1.158449563985633,0.1482128175414922,1.39132123710713,0.7960440052049448,1.476821837878335,-0.0708843559870193,1.143826442727972,761.1355311355312,861.0622710622711,806.2637362637363,780.0732600732601,882.014652014652,748.6446886446887,-0.182007,0.026855,0.973755,0.605621,-0.912170,0.142059,422502344.322344,374005641.025641,2876923.076923,88.415840,1,2,1,1,2,100.000000
2025-10-01 15:28:53.822,1.353028983122959,0.09097145996227708,0.7010127881311385,1.76848173261097,1.233289610783586,-0.2390476665902966,0.05422625277653948,1.546042098177828,1.372374123722079,0.3943130151552642,0.1407632928774538,1.50336713278083,1.27371800064213,1.158449563985633,0.1482128175414922,1.39132123710713,0.7960440052049448,1.476821837878335,-0.0708843559870193,1.143826442727972,788.1318681318681,913.4432234432235,802.2344322344322,802.2344322344322,880.8058608058608,994.4322344322345,-0.182007,0.026855,0.973755,0.605621,-0.912170,0.142059,422502344.322344,374005641.025641,2876923.076923,88.415840,1,2,1,1,2,100.000000
2025-10-01 15:28:53.822,1.353028983122959,0.09097145996227708,0.7010127881311385,1.76848173261097,1.233289610783586,-0.2390476665902966,0.05422625277653948,1.546042098177828,1.372374123722079,0.3943130151552642,0.1407632928774538,1.50336713278083,1.27371800064213,1.158449563985633,0.1482128175414922,1.39132123710713,0.7960440052049448,1.476821837878335,-0.0708843559870193,1.143826442727972,792.5641025641025,774.8351648351648,796.5934065934066,796.5934065934066,857.8388278388279,1155.201465201465,-0.182007,0.026855,0.973755,0.605621,-0.912170,0.142059,422502344.322344,374005641.025641,2876923.076923,88.415840,1,2,1,1,2,100.000000
2025-10-01 15:28:53.822,1.353028983122959,0.09097145996227708,0.7010127881311385,1.76848173261097,1.233289610783586,-0.2390476665902966,0.05422625277653948,1.546042098177828,1.372374123722079,0.3943130151552642,0.1407632928774538,1.50336713278083,1.27371800064213,1.158449563985633,0.1482128175414922,1.39132123710713,0.7960440052049448,1.476821837878335,-0.0708843559870193,1.143826442727972,776.0439560439561,692.6373626373627,797.8021978021978,768.7912087912088,803.040293040293,917.4725274725275,-0.182007,0.026855,0.973755,0.605621,-0.912170,0.142059,422502344.322344,374005641.025641,2876923.076923,88.415840,1,2,1,1,2,100.000000
2025-10-01 15:28:53.823,1.353028983122959,0.09097145996227708,0.7010127881311385,1.76848173261097,1.233289610783586,-0.2390476665902966,0.05422625277653948,1.546042098177828,1.372374123722079,0.3943130151552642,0.1407632928774538,1.50336713278083,1.27371800064213,1.158449563985633,0.1482128175414922,1.39132123710713,0.7960440052049448,1.476821837878335,-0.0708843559870193,1.143826442727972,762.3443223443223,765.1648351648352,800.2197802197802,755.0915750915751,836.8864468864469,628.1684981684982,-0.182007,0.026855,0.973755,0.605621,-0.912170,0.142059,422502344.322344,374005641.025641,2876923.076923,88.415840,1,2,1,1,2,100.000000
2025-10-01 15:28:53.823,1.353028983122959,0.09097145996227708,0.7010127881311385,1.76848173261097,1.233289610783586,-0.2390476665902966,0.05422625277653948,1.546042098177828,1.372374123722079,0.3943130151552642,0.1407632928774538,1.50336713278083,1.27371800064213,1.158449563985633,0.1482128175414922,1.39132123710713,0.7960440052049448,1.476821837878335,-0.0708843559870193,1.143826442727972,773.6263736263736,839.3040293040293,803.8461538461539,774.4322344322345,788.9377289377289,556.0439560439561,-0.182007,0.026855,0.973755,0.605621,-0.912170,0.142059,422502344.322344,374005641.025641,2876923.076923,88.415840,1,2,1,1,2,100.000000
2025-10-01 15:28:53.823,1.353028983122959,0.09097145996227708,0.7010127881311385,1.76848173261097,1.233289610783586,-0.2390476665902966,0.05422625277653948,1.546042098177828,1.372374123722079,0.3943130151552642,0.1407632928774538,1.50336713278083,1.27371800064213,1.158449563985633,0.1482128175414922,1.39132123710713,0.7960440052049448,1.476821837878335,-0.0708843559870193,1.143826442727972,789.3406593406594,828.021978021978,801.4285714285714,772.4175824175825,799.0109890109891,677.7289377289377,-0.182007,0.026855,0.973755,0.605621,-0.912170,0.142059,422502344.322344,374005641.025641,2876923.076923,88.415840,1,2,1,1,2,100.000000
2025-10-01 15:28:53.823,1.353028983122959,0.09097145996227708,0.7010127881311385,1.76848173261097,1.233289610783586,-0.2390476665902966,0.05422625277653948,1.546042098177828,1.372374123722079,0.3943130151552642,0.1407632928774538,1.50336713278083,1.27371800064213,1.158449563985633,0.1482128175414922,1.39132123710713,0.7960440052049448,1.476821837878335,-0.0708843559870193,1.143826442727972,781.2820512820513,796.5934065934066,801.8315018315019,757.1062271062272,851.7948717948718,751.8681318681319,-0.182007,0.026855,0.973755,0.605621,-0.912170,0.142059,422502344.322344,374005641.025641,2876923.076923,88.415840,1,2,1,1,2,100.000000
2025-10-01 15:28:53.823,1.353028983122959,0.09097145996227708,0.7010127881311385,1.76848173261097,1.233289610783586,-0.2390476665902966,0.05422625277653948,1.546042098177828,1.372374123722079,0.3943130151552642,0.1407632928774538,1.50336713278083,1.27371800064213,1.158449563985633,0.1482128175414922,1.39132123710713,0.7960440052049448,1.476821837878335,-0.0708843559870193,1.143826442727972,766.7765567765568,800.6227106227107,801.4285714285714,759.1208791208792,813.1135531135532,678.5347985347986,-0.182007,0.026855,0.973755,0.605621,-0.912170,0.142059,422502344.322344,374005641.025641,2876923.076923,88.415840,1,2,1,1,2,100.000000
2025-10-01 15:28:53.824,1.353028983122959,0.09097145996227708,0.7010127881311385,1.76848173261097,1.233289610783586,-0.2390476665902966,0.05422625277653948,1.546042098177828,1.372374123722079,0.3943130151552642,0.1407632928774538,1.50336713278083,1.27371800064213,1.158449563985633,0.1482128175414922,1.39132123710713,0.7960440052049448,1.476821837878335,-0.0708843559870193,1.143826442727972,767.1794871794872,862.6739926739926,799.4139194139194,787.7289377289378,833.6630036630037,711.1721611721612,-0.182007,0.026855,0.973755,0.605621,-0.912170,0.142059,422502344.322344,374005641.025641,2876923.076923,88.415840,1,2,1,1,2,100.000000
2025-10-01 15:28:53.824,1.353028983122959,0.09097145996227708,0.7010127881311385,1.76848173261097,1.233289610783586,-0.2390476665902966,0.05422625277653948,1.546042098177828,1.372374123722079,0.3943130151552642,0.1407632928774538,1.50336713278083,1.27371800064213,1.158449563985633,0.1482128175414922,1.39132123710713,0.7960440052049448,1.476821837878335,-0.0708843559870193,1.143826442727972,788.5347985347986,815.934065934066,801.4285714285714,806.6666666666667,861.4652014652015,799.4139194139194,-0.182007,0.026855,0.973755,0.605621,-0.912170,0.142059,422502344.322344,374005641.025641,2876923.076923,88.415840,1,2,1,1,2,100.000000
2025-10-01 15:28:53.824,1.353028983122959,0.09097145996227708,0.7010127881311385,1.76848173261097,1.233289610783586,-0.2390476665902966,0.05422625277653948,1.546042098177828,1.372374123722079,0.3943130151552642,0.1407632928774538,1.50336713278083,1.27371800064213,1.158449563985633,0.1482128175414922,1.39132123710713,0.7960440052049448,1.476821837878335,-0.0708843559870193,1.143826442727972,792.967032967033,764.7619047619048,809.0842490842491,787.7289377289378,848.1684981684982,739.3772893772893,-0.182007,0.026855,0.973755,0.605621,-0.912170,0.142059,422502344.322344,374005641.025641,2876923.076923,88.415840,1,2,1,1,2,100.000000
2025-10-01 15:28:53.824,1.353028983122959,0.09097145996227708,0.7010127881311385,1.76848173261097,1.233289610783586,-0.2390476665902966,0.05422625277653948,1.546042098177828,1.372374123722079,0.3943130151552642,0.1407632928774538,1.50336713278083,1.27371800064213,1.158449563985633,0.1482128175414922,1.39132123710713,0.7960440052049448,1.476821837878335,-0.0708843559870193,1.143826442727972,785.3113553113553,847.3626373626374,811.5018315018315,788.1318681318681,791.7582417582418,864.6886446886447,-0.182007,0.026855,0.973755,0.605621,-0.912170,0.142059,422502344.322344,374005641.025641,2876923.076923,88.415840,1,2,1,1,2,100.000000
2025-10-01 15:28:53.824,1.353028983122959,0.09097145996227708,0.7010127881311385,1.76848173261097,1.233289610783586,-0.2390476665902966,0.05422625277653948,1.546042098177828,1.372374123722079,0.3943130151552642,0.1407632928774538,1.50336713278083,1.27371800064213,1.158449563985633,0.1482128175414922,1.39132123710713,0.7960440052049448,1.476821837878335,-0.0708843559870193,1.143826442727972,803.8461538461539,866.3003663003664,811.5018315018315,821.5750915750916,770.4029304029305,1112.893772893773,-0.182007,0.026855,0.973755,0.605621,-0.912170,0.142059,422502344.322344,374005641.025641,2876923.076923,88.415840,1,2,1,1,2,100.000000
2025-10-01 15:28:53.825,1.353028983122959,0.09097145996227708,0.7010127881311385,1.76848173261097,1.233289610783586,-0.2390476665902966,0.05422625277653948,1.546042098177828,1.372374123722079,0.3943130151552642,0.1407632928774538,1.50336713278083,1.27371800064213,1.158449563985633,0.1482128175414922,1.39132123710713,0.7960440052049448,1.476821837878335,-0.0708843559870193,1.143826442727972,820.3663003663004,754.6886446886447,811.0989010989011,823.5897435897436,764.3589743589744,1052.454212454212,-0.182007,0.026855,0.973755,0.605621,-0.912170,0.142059,422502344.322344,374005641.025641,2876923.076923,88.415840,1,2,1,1,2,100.000000
2025-10-01 15:28:53.825,1.353028983122959,0.09097145996227708,0.7010127881311385,1.76848173261097,1.233289610783586,-0.2390476665902966,0.05422625277653948,1.546042098177828,1.372374123722079,0.3943130151552642,0.1407632928774538,1.50336713278083,1.27371800064213,1.158449563985633,0.1482128175414922,1.39132123710713,0.7960440052049448,1.476821837878335,-0.0708843559870193,1.143826442727972,826.8131868131868,779.6703296703297,807.4725274725275,808.6813186813187,731.7216117216118,1051.648351648352,-0.182007,0.026855,0.973755,0.605621,-0.912170,0.142059,422502344.322344,374005641.025641,2876923.076923,88.415840,1,2,1,1,2,100.000000
2025-10-01 15:28:53.825,1.353028983122959,0.09097145996227708,0.7010127881311385,1.76848173261097,1.233289610783586,-0.2390476665902966,0.05422625277653948,1.546042098177828,1.372374123722079,0.3943130151552642,0.1407632928774538,1.50336713278083,1.27371800064213,1.158449563985633,0.1482128175414922,1.39132123710713,0.7960440052049448,1.476821837878335,-0.0708843559870193,1.143826442727972,807.4725274725275,737.3626373626374,804.2490842490843,777.6556776556777,735.3479853479854,764.3589743589744,-0.182007,0.026855,0.973755,0.605621,-0.912170,0.142059,422502344.322344,374005641.025641,2876923.076923,88.415840,1,2,1,1,2,100.000000
2025-10-01 15:28:53.825,1.353028983122959,0.09097145996227708,0.7010127881311385,1.76848173261097,1.233289610783586,-0.2390476665902966,0.05422625277653948,1.546042098177828,1.372374123722079,0.3943130151552642,0.1407632928774538,1.50336713278083,1.27371800064213,1.158449563985633,0.1482128175414922,1.39132123710713,0.7960440052049448,1.476821837878335,-0.0708843559870193,1.143826442727972,784.9084249084249,799.8168498168499,798.6080586080586,774.8351648351648,784.5054945054945,519.3772893772893,-0.182007,0.026855,0.973755,0.605621,-0.912170,0.142059,422502344.322344,374005641.025641,2876923.076923,88.415840,1,2,1,1,2,100.000000
2025-10-01 15:28:53.825,1.353028983122959,0.09097145996227708,0.7010127881311385,1.76848173261097,1.233289610783586,-0.2390476665902966,0.05422625277653948,1.546042098177828,1.372374123722079,0.3943130151552642,0.1407632928774538,1.50336713278083,1.27371800064213,1.158449563985633,0.1482128175414922,1.39132123710713,0.7960440052049448,1.476821837878335,-0.0708843559870193,1.143826442727972,802.2344322344322,884.4322344322345,796.5934065934066,801.8315018315019,880.4029304029305,699.0842490842491,-0.182007,0.026855,0.973755,0.605621,-0.912170,0.142059,422502344.322344,374005641.025641,2876923.076923,88.415840,1,2,1,1,2,100.000000
2025-10-01 15:28:53.826,1.353028983122959,0.09097145996227708,0.6345940520542431,1.76848173261097,1.233289610783586,-0.2390476665902966,0.03850859340264048,1.546042098177828,1.372374123722079,0.3943130151552642,0.1744927459575659,1.50336713278083,1.27371800064213,1.158449563985633,0.134084891926012,1.39132123710713,0.7960440052049448,1.476821837878335,-0.04841246213125577,1.143826442727972,812.7106227106227,819.96336996337,799.0109890109891,794.1758241758242,899.3406593406594,753.4798534798535,-0.182007,0.026855,0.973755,0.605621,-0.912170,0.142059,422502344.322344,374005641.025641,2876923.076923,88.415840,1,2,1,1,2,100.000000
2025-10-01 15:28:53.827,1.353028983122959,0.09097145996227708,0.6345940520542431,1.76848173261097,1.233289610783586,-0.2390476665902966,0.03850859340264048,1.546042098177828,1.372374123722079,0.3943130151552642,0.1744927459575659,1.50336713278083,1.27371800064213,1.158449563985633,0.134084891926012,1.39132123710713,0.7960440052049448,1.476821837878335,-0.04841246213125577,1.143826442727972,809.4871794871796,830.8424908424909,803.040293040293,789.3406593406594,909.4139194139194,711.5750915750916,-0.180481,0.029419,0.978699,0.590668,-1.226196,0.657959,422502344.322344,374076556.776557,2905934.065934,88.221275,1,2,1,1,2,100.000000
2025-10-01 15:28:53.827,1.353028983122959,0.09097145996227708,0.6345940520542431,1.76848173261097,1.233289610783586,-0.2390476665902966,0.03850859340264048,1.546042098177828,1.372374123722079,0.3943130151552642,0.1744927459575659,1.50336713278083,1.27371800064213,1.158449563985633,0.134084891926012,1.39132123710713,0.7960440052049448,1.476821837878335,-0.04841246213125577,1.143826442727972,792.967032967033,872.7472527472528,806.2637362637363,802.6373626373627,963.4065934065934,776.0439560439561,-0.180481,0.029419,0.978699,0.590668,-1.226196,0.657959,422502344.322344,374076556.776557,2905934.065934,88.221275,1,2,1,1,2,100.000000
2025-10-01 15:28:53.827,1.353028983122959,0.09097145996227708,0.6345940520542431,1.76848173261097,1.233289610783586,-0.2390476665902966,0.03850859340264048,1.546042098177828,1.372374123722079,0.3943130151552642,0.1744927459575659,1.50336713278083,1.27371800064213,1.158449563985633,0.134084891926012,1.39132123710713,0.7960440052049448,1.476821837878335,-0.04841246213125577,1.143826442727972,798.6080586080586,847.7655677655678,807.8754578754579,818.7545787545788,980.3296703296703,873.5531135531136,-0.180481,0.029419,0.978699,0.590668,-1.226196,0.657959,422502344.322344,374076556.776557,2905934.065934,88.221275,1,2,1,1,2,100.000000
2025-10-01 15:28:53.828,1.353028983122959,0.09097145996227708,0.6345940520542431,1.76848173261097,1.233289610783586,-0.2390476665902966,0.03850859340264048,1.546042098177828,1.372374123722079,0.3943130151552642,0.1744927459575659,1.50336713278083,1.27371800064213,1.158449563985633,0.134084891926012,1.39132123710713,0.7960440052049448,1.476821837878335,-0.04841246213125577,1.143826442727972,811.5018315018315,773.6263736263736,808.2783882783883,813.5164835164835,968.6446886446887,860.2564102564103,-0.180481,0.029419,0.978699,0.590668,-1.226196,0.657959,422502344.322344,374076556.776557,2905934.065934,88.221275,1,2,1,1,2,100.000000
2025-10-01 15:28:53.828,1.353028983122959,0.09097145996227708,0.6345940520542431,1.76848173261097,1.233289610783586,-0.2390476665902966,0.03850859340264048,1.546042098177828,1.372374123722079,0.3943130151552642,0.1744927459575659,1.50336713278083,1.27371800064213,1.158449563985633,0.134084891926012,1.39132123710713,0.7960440052049448,1.476821837878335,-0.04841246213125577,1.143826442727972,797.3992673992674,815.934065934066,804.2490842490843,793.7728937728938,892.893772893773,718.8278388278388,-0.180481,0.029419,0.978699,0.590668,-1.226196,0.657959,422502344.322344,374076556.776557,2905934.065934,88.221275,1,2,1,1,2,100.000000
2025-10-01 15:28:53.828,1.353028983122959,0.09097145996227708,0.6345940520542431,1.76848173261097,1.233289610783586,-0.2390476665902966,0.03850859340264048,1.546042098177828,1.372374123722079,0.3943130151552642,0.1744927459575659,1.50336713278083,1.27371800064213,1.158449563985633,0.134084891926012,1.39132123710713,0.7960440052049448,1.476821837878335,-0.04841246213125577,1.143826442727972,799.4139194139194,994.0293040293041,801.4285714285714,811.5018315018315,892.893772893773,1005.714285714286,-0.180481,0.029419,0.978699,0.590668,-1.226196,0.657959,422502344.322344,374076556.776557,2905934.065934,88.221275,1,2,1,1,2,100.000000
2025-10-01 15:28:53.828,1.353028983122959,0.09097145996227708,0.6345940520542431,1.76848173261097,1.233289610783586,-0.2390476665902966,0.03850859340264048,1.546042098177828,1.372374123722079,0.3943130151552642,0.1744927459575659,1.50336713278083,1.27371800064213,1.158449563985633,0.134084891926012,1.39132123710713,0.7960440052049448,1.476821837878335,-0.04841246213125577,1.143826442727972,800.6227106227107,804.6520146520147,803.4432234432235,830.4395604395604,912.6373626373627,1204.358974358974,-0.180481,0.029419,0.978699,0.590668,-1.226196,0.657959,422502344.322344,374076556.776557,2905934.065934,88.221275,1,2,1,1,2,100.000000
