TimeStamp,Delta_TP9,Delta_AF7,Delta_AF8,Delta_TP10,Theta_TP9,Theta_AF7,Theta_AF8,Theta_TP10,Alpha_TP9,Alpha_AF7,Alpha_AF8,Alpha_TP10,Beta_TP9,Beta_AF7,Beta_AF8,Beta_TP10,Gamma_TP9,Gamma_AF7,Gamma_AF8,Gamma_TP10,RAW_TP9,RAW_AF7,RAW_AF8,RAW_TP10,AUX_RIGHT,Accelerometer_X,Accelerometer_Y,Accelerometer_Z,Gyro_X,Gyro_Y,Gyro_Z,PPG_Ambient,PPG_IR,PPG_Red,Heart_Rate,HeadBandOn,HSI_TP9,HSI_AF7,HSI_AF8,HSI_TP10,Battery,Elements
2025-10-04 16:55:36.757,,,,,,,,,,,,,,,,,,,,,,,,,,,,,,,,,,,,,,,,,,/muse/event/connected Muse-D2BD
2025-10-04 16:55:36.798,1.194619954467756,0,0,1.086481010592766,0.6122397056908127,0,0,0.3018814934635018,0.9092360411321773,0,0,0.960370887276365,0.7282689446205345,0,0,0.6288098254111081,0.5641246990077937,0,0,0.4978327313614906,788.5347985347986,854.6153846153846,373.919413919414,786.5201465201466,693.040293040293,-0.463806,0.185791,0.877869,2.078552,-4.538422,-0.239258,2041245.421245,130717875.457875,28927985.347985,121.100647,1,1,1,1,1,25.000000
2025-10-04 16:55:36.798,1.194619954467756,0,0,1.086481010592766,0.6122397056908127,0,0,0.3018814934635018,0.9092360411321773,0,0,0.960370887276365,0.7282689446205345,0,0,0.6288098254111081,0.5641246990077937,0,0,0.4978327313614906,796.996336996337,871.1355311355312,429.1208791208791,788.1318681318681,660.8058608058608,-0.463806,0.185791,0.877869,2.078552,-4.538422,-0.239258,2041245.421245,130717875.457875,28927985.347985,121.100647,1,1,1,1,1,25.000000
2025-10-04 16:55:36.798,1.194619954467756,0,0,1.086481010592766,0.6122397056908127,0,0,0.3018814934635018,0.9092360411321773,0,0,0.960370887276365,0.7282689446205345,0,0,0.6288098254111081,0.5641246990077937,0,0,0.4978327313614906,795.7875457875458,865.0915750915751,447.6556776556777,779.6703296703297,629.3772893772893,-0.463806,0.185791,0.877869,2.078552,-4.538422,-0.239258,2041245.421245,130717875.457875,28927985.347985,121.100647,1,1,1,1,1,25.000000
2025-10-04 16:55:36.798,1.194619954467756,0,0,1.086481010592766,0.6122397056908127,0,0,0.3018814934635018,0.9092360411321773,0,0,0.960370887276365,0.7282689446205345,0,0,0.6288098254111081,0.5641246990077937,0,0,0.4978327313614906,796.5934065934066,843.7362637362637,420.2564102564103,779.2673992673992,624.1391941391942,-0.463806,0.185791,0.877869,2.078552,-4.538422,-0.239258,2041245.421245,130717875.457875,28927985.347985,121.100647,1,1,1,1,1,25.000000
2025-10-04 16:55:36.799,1.194619954467756,0,0,1.086481010592766,0.6122397056908127,0,0,0.3018814934635018,0.9092360411321773,0,0,0.960370887276365,0.7282689446205345,0,0,0.6288098254111081,0.5641246990077937,0,0,0.4978327313614906,786.9230769230769,843.7362637362637,401.7216117216117,780.0732600732601,720.8424908424909,-0.463806,0.185791,0.877869,2.078552,-4.538422,-0.239258,2041245.421245,130717875.457875,28927985.347985,121.100647,1,1,1,1,1,25.000000
2025-10-04 16:55:36.799,1.194619954467756,0,0,1.086481010592766,0.6122397056908127,0,0,0.3018814934635018,0.9092360411321773,0,0,0.960370887276365,0.7282689446205345,0,0,0.6288098254111081,0.5641246990077937,0,0,0.4978327313614906,782.4908424908425,853.0036630036631,377.1428571428572,791.7582417582418,802.6373626373627,-0.463806,0.185791,0.877869,2.078552,-4.538422,-0.239258,2041245.421245,130717875.457875,28927985.347985,121.100647,1,1,1,1,1,25.000000
2025-10-04 16:55:36.799,1.194619954467756,0,0,1.086481010592766,0.6122397056908127,0,0,0.3018814934635018,0.9092360411321773,0,0,0.960370887276365,0.7282689446205345,0,0,0.6288098254111081,0.5641246990077937,0,0,0.4978327313614906,798.6080586080586,845.7509157509157,367.8754578754579,807.8754578754579,718.8278388278388,-0.463806,0.185791,0.877869,2.078552,-4.538422,-0.239258,2041245.421245,130717875.457875,28927985.347985,121.100647,1,1,1,1,1,25.000000
2025-10-04 16:55:36.799,1.194619954467756,0,0,1.086481010592766,0.6122397056908127,0,0,0.3018814934635018,0.9092360411321773,0,0,0.960370887276365,0.7282689446205345,0,0,0.6288098254111081,0.5641246990077937,0,0,0.4978327313614906,806.6666666666667,841.3186813186813,380.7692307692308,809.0842490842491,691.025641025641,-0.463806,0.185791,0.877869,2.078552,-4.538422,-0.239258,2041245.421245,130717875.457875,28927985.347985,121.100647,1,1,1,1,1,25.000000
2025-10-04 16:55:36.799,1.194619954467756,0,0,1.086481010592766,0.6122397056908127,0,0,0.3018814934635018,0.9092360411321773,0,0,0.960370887276365,0.7282689446205345,0,0,0.6288098254111081,0.5641246990077937,0,0,0.4978327313614906,803.8461538461539,824.7985347985348,276.007326007326,804.2490842490843,994.8351648351648,-0.463806,0.185791,0.877869,2.078552,-4.538422,-0.239258,2041245.421245,130717875.457875,28927985.347985,121.100647,1,1,1,1,1,25.000000
2025-10-04 16:55:36.799,1.194619954467756,0,0,1.086481010592766,0.6122397056908127,0,0,0.3018814934635018,0.9092360411321773,0,0,0.960370887276365,0.7282689446205345,0,0,0.6288098254111081,0.5641246990077937,0,0,0.4978327313614906,797.3992673992674,856.2271062271062,294.1391941391942,801.4285714285714,1025.457875457875,-0.463806,0.185791,0.877869,2.078552,-4.538422,-0.239258,2041245.421245,130717875.457875,28927985.347985,121.100647,1,1,1,1,1,25.000000
2025-10-04 16:55:36.800,1.194619954467756,0,0,1.086481010592766,0.6122397056908127,0,0,0.3018814934635018,0.9092360411321773,0,0,0.960370887276365,0.7282689446205345,0,0,0.6288098254111081,0.5641246990077937,0,0,0.4978327313614906,788.5347985347986,880,448.8644688644689,793.7728937728938,637.032967032967,-0.463806,0.185791,0.877869,2.078552,-4.538422,-0.239258,2041245.421245,130717875.457875,28927985.347985,121.100647,1,1,1,1,1,25.000000
2025-10-04 16:55:36.800,1.194619954467756,0,0,1.086481010592766,0.6122397056908127,0,0,0.3018814934635018,0.9092360411321773,0,0,0.960370887276365,0.7282689446205345,0,0,0.6288098254111081,0.5641246990077937,0,0,0.4978327313614906,789.3406593406594,841.7216117216118,363.0402930402931,793.7728937728938,622.5274725274726,-0.463806,0.185791,0.877869,2.078552,-4.538422,-0.239258,2041245.421245,130717875.457875,28927985.347985,121.100647,1,1,1,1,1,25.000000
2025-10-04 16:55:36.800,1.194619954467756,0,0,1.086481010592766,0.6122397056908127,0,0,0.3018814934635018,0.9092360411321773,0,0,0.960370887276365,0.7282689446205345,0,0,0.6288098254111081,0.5641246990077937,0,0,0.4978327313614906,794.981684981685,847.3626373626374,361.0256410256411,794.5787545787546,712.3809523809524,-0.457397,0.185242,0.890503,2.691650,-4.501038,-0.336456,2041245.421245,130717875.457875,28927985.347985,121.100647,1,1,1,1,1,25.000000
2025-10-04 16:55:36.800,1.194619954467756,0,0,1.086481010592766,0.6122397056908127,0,0,0.3018814934635018,0.9092360411321773,0,0,0.960370887276365,0.7282689446205345,0,0,0.6288098254111081,0.5641246990077937,0,0,0.4978327313614906,801.8315018315019,860.2564102564103,470.6227106227107,790.5494505494506,688.2051282051282,-0.457397,0.185242,0.890503,2.691650,-4.501038,-0.336456,2041245.421245,130717875.457875,28927985.347985,121.100647,1,1,1,1,1,25.000000
2025-10-04 16:55:36.800,1.194619954467756,0,0,1.086481010592766,0.6122397056908127,0,0,0.3018814934635018,0.9092360411321773,0,0,0.960370887276365,0.7282689446205345,0,0,0.6288098254111081,0.5641246990077937,0,0,0.4978327313614906,805.4578754578755,855.8241758241759,437.5824175824176,783.6996336996338,651.1355311355312,-0.457397,0.185242,0.890503,2.691650,-4.501038,-0.336456,2041245.421245,130717875.457875,28927985.347985,121.100647,1,1,1,1,1,25.000000
2025-10-04 16:55:36.801,1.171344763363087,0,0,1.05309123892991,0.589684365128386,0,0,0.2397111737116586,0.9081673643169155,0,0,0.7381872761340367,0.6979332956717469,0,0,0.6206109592310206,0.5762596587529065,0,0,0.5085880946364779,793.7728937728938,843.3333333333334,400.5128205128205,795.3846153846154,680.952380952381,-0.457397,0.185242,0.890503,2.691650,-4.501038,-0.336456,2041245.421245,130717875.457875,28927985.347985,121.100647,1,1,1,1,1,25.000000
2025-10-04 16:55:36.801,1.171344763363087,0,0,1.05309123892991,0.589684365128386,0,0,0.2397111737116586,0.9081673643169155,0,0,0.7381872761340367,0.6979332956717469,0,0,0.6206109592310206,0.5762596587529065,0,0,0.5085880946364779,796.1904761904763,843.3333333333334,388.4249084249084,806.2637362637363,755.0915750915751,-0.457397,0.185242,0.890503,2.691650,-4.501038,-0.336456,2041245.421245,130717875.457875,28927985.347985,121.100647,1,1,1,1,1,25.000000
2025-10-04 16:55:36.802,1.171344763363087,0,0,1.05309123892991,0.589684365128386,0,0,0.2397111737116586,0.9081673643169155,0,0,0.7381872761340367,0.6979332956717469,0,0,0.6206109592310206,0.5762596587529065,0,0,0.5085880946364779,802.2344322344322,853.0036630036631,382.3809523809524,794.1758241758242,806.2637362637363,-0.457397,0.185242,0.890503,2.691650,-4.501038,-0.336456,2041245.421245,130717875.457875,28927985.347985,121.100647,1,1,1,1,1,25.000000
2025-10-04 16:55:36.802,1.171344763363087,0,0,1.05309123892991,0.589684365128386,0,0,0.2397111737116586,0.9081673643169155,0,0,0.7381872761340367,0.6979332956717469,0,0,0.6206109592310206,0.5762596587529065,0,0,0.5085880946364779,800.6227106227107,853.4065934065934,375.5311355311355,801.025641025641,759.5238095238095,-0.457397,0.185242,0.890503,2.691650,-4.501038,-0.336456,2041245.421245,130717875.457875,28927985.347985,121.100647,1,1,1,1,1,25.000000
2025-10-04 16:55:36.802,1.171344763363087,0,0,1.05309123892991,0.589684365128386,0,0,0.2397111737116586,0.9081673643169155,0,0,0.7381872761340367,0.6979332956717469,0,0,0.6206109592310206,0.5762596587529065,0,0,0.5085880946364779,794.5787545787546,829.2307692307693,318.7179487179487,801.4285714285714,913.040293040293,-0.457397,0.185242,0.890503,2.691650,-4.501038,-0.336456,2041245.421245,130717875.457875,28927985.347985,121.100647,1,1,1,1,1,25.000000
2025-10-04 16:55:36.802,1.171344763363087,0,0,1.05309123892991,0.589684365128386,0,0,0.2397111737116586,0.9081673643169155,0,0,0.7381872761340367,0.6979332956717469,0,0,0.6206109592310206,0.5762596587529065,0,0,0.5085880946364779,794.981684981685,815.1282051282052,198.6446886446886,805.0549450549451,1305.091575091575,-0.457397,0.185242,0.890503,2.691650,-4.501038,-0.336456,2041245.421245,130717875.457875,28927985.347985,121.100647,1,1,1,1,1,25.000000
2025-10-04 16:55:36.802,1.171344763363087,0,0,1.05309123892991,0.589684365128386,0,0,0.2397111737116586,0.9081673643169155,0,0,0.7381872761340367,0.6979332956717469,0,0,0.6206109592310206,0.5762596587529065,0,0,0.5085880946364779,797.3992673992674,878.3882783882784,332.4175824175824,819.5604395604396,1196.300366300366,-0.457397,0.185242,0.890503,2.691650,-4.501038,-0.336456,2041245.421245,130717875.457875,28927985.347985,121.100647,1,1,1,1,1,25.000000
2025-10-04 16:55:36.802,1.171344763363087,0,0,1.05309123892991,0.589684365128386,0,0,0.2397111737116586,0.9081673643169155,0,0,0.7381872761340367,0.6979332956717469,0,0,0.6206109592310206,0.5762596587529065,0,0,0.5085880946364779,804.2490842490843,890.8791208791209,470.6227106227107,805.4578754578755,794.5787545787546,-0.457397,0.185242,0.890503,2.691650,-4.501038,-0.336456,2041245.421245,130717875.457875,28927985.347985,121.100647,1,1,1,1,1,25.000000
2025-10-04 16:55:36.803,1.171344763363087,0,0,1.05309123892991,0.589684365128386,0,0,0.2397111737116586,0.9081673643169155,0,0,0.7381872761340367,0.6979332956717469,0,0,0.6206109592310206,0.5762596587529065,0,0,0.5085880946364779,800.2197802197802,859.4505494505495,399.7069597069597,795.3846153846154,758.7179487179487,-0.457397,0.185242,0.890503,2.691650,-4.501038,-0.336456,2041245.421245,130717875.457875,28927985.347985,121.100647,1,1,1,1,1,25.000000
2025-10-04 16:55:36.804,1.171344763363087,0,0,1.05309123892991,0.589684365128386,0,0,0.2397111737116586,0.9081673643169155,0,0,0.7381872761340367,0.6979332956717469,0,0,0.6206109592310206,0.5762596587529065,0,0,0.5085880946364779,811.0989010989011,865.8974358974359,459.7435897435898,800.6227106227107,794.981684981685,-0.463196,0.187134,0.888916,2.302856,-4.897308,-0.089722,2045274.725275,130756556.776557,28931208.791209,121.100647,1,1,1,1,1,25.000000
2025-10-04 16:55:36.804,1.171344763363087,0,0,1.05309123892991,0.589684365128386,0,0,0.2397111737116586,0.9081673643169155,0,0,0.7381872761340367,0.6979332956717469,0,0,0.6206109592310206,0.5762596587529065,0,0,0.5085880946364779,820.3663003663004,857.032967032967,477.8754578754579,814.7252747252747,743.8095238095239,-0.463196,0.187134,0.888916,2.302856,-4.897308,-0.089722,2045274.725275,130756556.776557,28931208.791209,121.100647,1,1,1,1,1,25.000000
2025-10-04 16:55:36.804,1.171344763363087,0,0,1.05309123892991,0.589684365128386,0,0,0.2397111737116586,0.9081673643169155,0,0,0.7381872761340367,0.6979332956717469,0,0,0.6206109592310206,0.5762596587529065,0,0,0.5085880946364779,802.6373626373627,840.1098901098901,447.6556776556777,805.4578754578755,736.1538461538462,-0.463196,0.187134,0.888916,2.302856,-4.897308,-0.089722,2045274.725275,130756556.776557,28931208.791209,121.100647,1,1,1,1,1,25.000000
2025-10-04 16:55:36.804,1.171344763363087,0,0,1.05309123892991,0.589684365128386,0,0,0.2397111737116586,0.9081673643169155,0,0,0.7381872761340367,0.6979332956717469,0,0,0.6206109592310206,0.5762596587529065,0,0,0.5085880946364779,798.2051282051282,842.5274725274726,413.4065934065934,790.5494505494506,708.7545787545788,-0.463196,0.187134,0.888916,2.302856,-4.897308,-0.089722,2045274.725275,130756556.776557,28931208.791209,121.100647,1,1,1,1,1,25.000000
2025-10-04 16:55:36.804,1.171344763363087,0,0,1.05309123892991,0.589684365128386,0,0,0.2397111737116586,0.9081673643169155,0,0,0.7381872761340367,0.6979332956717469,0,0,0.6206109592310206,0.5762596587529065,0,0,0.5085880946364779,814.7252747252747,853.4065934065934,415.018315018315,801.4285714285714,655.9706959706959,-0.463196,0.187134,0.888916,2.302856,-4.897308,-0.089722,2045274.725275,130756556.776557,28931208.791209,121.100647,1,1,1,1,1,25.000000
2025-10-04 16:55:36.804,1.171344763363087,0,0,1.05309123892991,0.589684365128386,0,0,0.2397111737116586,0.9081673643169155,0,0,0.7381872761340367,0.6979332956717469,0,0,0.6206109592310206,0.5762596587529065,0,0,0.5085880946364779,813.5164835164835,836.0805860805862,346.9230769230769,793.7728937728938,631.3919413919414,-0.463196,0.187134,0.888916,2.302856,-4.897308,-0.089722,2045274.725275,130756556.776557,28931208.791209,121.100647,1,1,1,1,1,25.000000
2025-10-04 16:55:36.805,1.171344763363087,0,0,1.05309123892991,0.589684365128386,0,0,0.2397111737116586,0.9081673643169155,0,0,0.7381872761340367,0.6979332956717469,0,0,0.6206109592310206,0.5762596587529065,0,0,0.5085880946364779,790.952380952381,843.7362637362637,334.0293040293041,780.8791208791209,633.4065934065934,-0.463196,0.187134,0.888916,2.302856,-4.897308,-0.089722,2045274.725275,130756556.776557,28931208.791209,121.100647,1,1,1,1,1,25.000000
2025-10-04 16:55:36.805,1.171344763363087,0,0,1.05309123892991,0.589684365128386,0,0,0.2397111737116586,0.9081673643169155,0,0,0.7381872761340367,0.6979332956717469,0,0,0.6206109592310206,0.5762596587529065,0,0,0.5085880946364779,791.3553113553114,840.1098901098901,303.003663003663,803.040293040293,880.8058608058608,-0.463196,0.187134,0.888916,2.302856,-4.897308,-0.089722,2045274.725275,130756556.776557,28931208.791209,121.100647,1,1,1,1,1,25.000000
2025-10-04 16:55:36.805,1.171344763363087,0,0,1.05309123892991,0.589684365128386,0,0,0.2397111737116586,0.9081673643169155,0,0,0.7381872761340367,0.6979332956717469,0,0,0.6206109592310206,0.5762596587529065,0,0,0.5085880946364779,802.6373626373627,881.2087912087912,372.7106227106227,803.040293040293,876.7765567765568,-0.463196,0.187134,0.888916,2.302856,-4.897308,-0.089722,2045274.725275,130756556.776557,28931208.791209,121.100647,1,1,1,1,1,25.000000
2025-10-04 16:55:36.805,1.171344763363087,0,0,1.05309123892991,0.589684365128386,0,0,0.2397111737116586,0.9081673643169155,0,0,0.7381872761340367,0.6979332956717469,0,0,0.6206109592310206,0.5762596587529065,0,0,0.5085880946364779,798.6080586080586,904.1758241758242,508.9010989010989,803.4432234432235,717.2161172161173,-0.463196,0.187134,0.888916,2.302856,-4.897308,-0.089722,2045274.725275,130756556.776557,28931208.791209,121.100647,1,1,1,1,1,25.000000
2025-10-04 16:55:36.805,1.171344763363087,0,0,1.05309123892991,0.589684365128386,0,0,0.2397111737116586,0.9081673643169155,0,0,0.7381872761340367,0.6979332956717469,0,0,0.6206109592310206,0.5762596587529065,0,0,0.5085880946364779,792.5641025641025,857.4358974358975,403.7362637362638,796.1904761904763,772.8205128205128,-0.463196,0.187134,0.888916,2.302856,-4.897308,-0.089722,2045274.725275,130756556.776557,28931208.791209,121.100647,1,1,1,1,1,25.000000
2025-10-04 16:55:36.805,1.171344763363087,0,0,1.05309123892991,0.589684365128386,0,0,0.2397111737116586,0.9081673643169155,0,0,0.7381872761340367,0.6979332956717469,0,0,0.6206109592310206,0.5762596587529065,0,0,0.5085880946364779,787.7289377289378,854.2124542124542,346.1172161172161,788.1318681318681,805.4578754578755,-0.463196,0.187134,0.888916,2.302856,-4.897308,-0.089722,2045274.725275,130756556.776557,28931208.791209,121.100647,1,1,1,1,1,25.000000
2025-10-04 16:55:36.806,1.171344763363087,0,0,1.05309123892991,0.589684365128386,0,0,0.2397111737116586,0.9081673643169155,0,0,0.7381872761340367,0.6979332956717469,0,0,0.6206109592310206,0.5762596587529065,0,0,0.5085880946364779,800.2197802197802,881.6117216117217,464.981684981685,801.8315018315019,839.7069597069598,-0.467285,0.183105,0.889587,2.078552,-4.658051,-0.949554,2045274.725275,130756556.776557,28931208.791209,121.100647,1,1,1,1,1,25.000000
2025-10-04 16:55:36.806,1.171344763363087,0,0,1.05309123892991,0.589684365128386,0,0,0.2397111737116586,0.9081673643169155,0,0,0.7381872761340367,0.6979332956717469,0,0,0.6206109592310206,0.5762596587529065,0,0,0.5085880946364779,808.6813186813187,877.985347985348,516.959706959707,798.2051282051282,827.6190476190476,-0.467285,0.183105,0.889587,2.078552,-4.658051,-0.949554,2045274.725275,130756556.776557,28931208.791209,121.100647,1,1,1,1,1,25.000000
2025-10-04 16:55:36.806,1.171344763363087,0,0,1.05309123892991,0.589684365128386,0,0,0.2397111737116586,0.9081673643169155,0,0,0.7381872761340367,0.6979332956717469,0,0,0.6206109592310206,0.5762596587529065,0,0,0.5085880946364779,800.6227106227107,844.1391941391942,392.051282051282,792.5641025641025,869.5238095238095,-0.467285,0.183105,0.889587,2.078552,-4.658051,-0.949554,2045274.725275,130756556.776557,28931208.791209,121.100647,1,1,1,1,1,25.000000
2025-10-04 16:55:36.806,1.171344763363087,0,0,1.05309123892991,0.589684365128386,0,0,0.2397111737116586,0.9081673643169155,0,0,0.7381872761340367,0.6979332956717469,0,0,0.6206109592310206,0.5762596587529065,0,0,0.5085880946364779,795.7875457875458,847.7655677655678,315.4945054945055,796.996336996337,862.6739926739926,-0.467285,0.183105,0.889587,2.078552,-4.658051,-0.949554,2045274.725275,130756556.776557,28931208.791209,121.100647,1,1,1,1,1,25.000000
2025-10-04 16:55:36.806,1.171344763363087,0,0,1.05309123892991,0.589684365128386,0,0,0.2397111737116586,0.9081673643169155,0,0,0.7381872761340367,0.6979332956717469,0,0,0.6206109592310206,0.5762596587529065,0,0,0.5085880946364779,810.2930402930403,865.4945054945056,381.978021978022,805.8608058608058,714.7985347985348,-0.467285,0.183105,0.889587,2.078552,-4.658051,-0.949554,2045274.725275,130756556.776557,28931208.791209,121.100647,1,1,1,1,1,25.000000
2025-10-04 16:55:36.806,1.138796339127889,0,0,1.05309123892991,0.5479368622166332,0,0,0.2397111737116586,0.8864364093062097,0,0,0.7381872761340367,0.6700598879150459,0,0,0.6206109592310206,0.5849566587129409,0,0,0.5085880946364779,824.7985347985348,865.8974358974359,386.007326007326,811.5018315018315,730.5128205128206,-0.467285,0.183105,0.889587,2.078552,-4.658051,-0.949554,2045274.725275,130756556.776557,28931208.791209,121.100647,1,1,1,1,1,25.000000
2025-10-04 16:55:36.807,1.138796339127889,0,0,1.05309123892991,0.5479368622166332,0,0,0.2397111737116586,0.8864364093062097,0,0,0.7381872761340367,0.6700598879150459,0,0,0.6206109592310206,0.5849566587129409,0,0,0.5085880946364779,805.8608058608058,843.3333333333334,344.1025641025641,817.948717948718,979.1208791208792,-0.467285,0.183105,0.889587,2.078552,-4.658051,-0.949554,2045274.725275,130756556.776557,28931208.791209,121.100647,1,1,1,1,1,25.000000
2025-10-04 16:55:36.807,1.138796339127889,0,0,1.05309123892991,0.5479368622166332,0,0,0.2397111737116586,0.8864364093062097,0,0,0.7381872761340367,0.6700598879150459,0,0,0.6206109592310206,0.5849566587129409,0,0,0.5085880946364779,792.1611721611722,828.021978021978,223.6263736263736,813.1135531135532,1276.483516483516,-0.467285,0.183105,0.889587,2.078552,-4.658051,-0.949554,2045274.725275,130756556.776557,28931208.791209,121.100647,1,1,1,1,1,25.000000
2025-10-04 16:55:36.807,1.138796339127889,0,0,1.05309123892991,0.5479368622166332,0,0,0.2397111737116586,0.8864364093062097,0,0,0.7381872761340367,0.6700598879150459,0,0,0.6206109592310206,0.5849566587129409,0,0,0.5085880946364779,804.2490842490843,894.908424908425,375.5311355311355,804.2490842490843,1025.054945054945,-0.467285,0.183105,0.889587,2.078552,-4.658051,-0.949554,2045274.725275,130756556.776557,28931208.791209,121.100647,1,1,1,1,1,25.000000
2025-10-04 16:55:36.808,1.138796339127889,0,0,1.05309123892991,0.5479368622166332,0,0,0.2397111737116586,0.8864364093062097,0,0,0.7381872761340367,0.6700598879150459,0,0,0.6206109592310206,0.5849566587129409,0,0,0.5085880946364779,830.4395604395604,891.2820512820513,484.3223443223443,798.6080586080586,743.8095238095239,-0.467285,0.183105,0.889587,2.078552,-4.658051,-0.949554,2045274.725275,130756556.776557,28931208.791209,121.100647,1,1,1,1,1,25.000000
2025-10-04 16:55:36.808,1.138796339127889,0,0,1.05309123892991,0.5479368622166332,0,0,0.2397111737116586,0.8864364093062097,0,0,0.7381872761340367,0.6700598879150459,0,0,0.6206109592310206,0.5849566587129409,0,0,0.5085880946364779,820.3663003663004,868.7179487179487,410.989010989011,786.1172161172161,771.2087912087912,-0.467285,0.183105,0.889587,2.078552,-4.658051,-0.949554,2045274.725275,130756556.776557,28931208.791209,121.100647,1,1,1,1,1,25.000000
2025-10-04 16:55:36.808,1.138796339127889,0,0,1.05309123892991,0.5479368622166332,0,0,0.2397111737116586,0.8864364093062097,0,0,0.7381872761340367,0.6700598879150459,0,0,0.6206109592310206,0.5849566587129409,0,0,0.5085880946364779,787.3260073260074,883.2234432234433,456.1172161172161,781.6849816849817,741.3919413919414,-0.467285,0.183105,0.889587,2.078552,-4.658051,-0.949554,2045274.725275,130756556.776557,28931208.791209,121.100647,1,1,1,1,1,25.000000
2025-10-04 16:55:36.809,1.138796339127889,0,0,1.05309123892991,0.5479368622166332,0,0,0.2397111737116586,0.8864364093062097,0,0,0.7381872761340367,0.6700598879150459,0,0,0.6206109592310206,0.5849566587129409,0,0,0.5085880946364779,794.1758241758242,877.5824175824176,475.8608058608059,788.1318681318681,679.3406593406594,-0.455139,0.184326,0.885864,2.661743,-4.994507,-1.353302,2042857.142857,130796043.956044,28961831.501832,121.100647,1,1,1,1,1,25.000000
2025-10-04 16:55:36.809,1.138796339127889,0,0,1.05309123892991,0.5479368622166332,0,0,0.2397111737116586,0.8864364093062097,0,0,0.7381872761340367,0.6700598879150459,0,0,0.6206109592310206,0.5849566587129409,0,0,0.5085880946364779,808.2783882783883,862.2710622710623,435.5677655677656,804.2490842490843,693.4432234432235,-0.455139,0.184326,0.885864,2.661743,-4.994507,-1.353302,2042857.142857,130796043.956044,28961831.501832,121.100647,1,1,1,1,1,25.000000
2025-10-04 16:55:36.809,1.138796339127889,0,0,1.05309123892991,0.5479368622166332,0,0,0.2397111737116586,0.8864364093062097,0,0,0.7381872761340367,0.6700598879150459,0,0,0.6206109592310206,0.5849566587129409,0,0,0.5085880946364779,803.4432234432235,868.3150183150184,395.6776556776557,813.5164835164835,834.8717948717949,-0.455139,0.184326,0.885864,2.661743,-4.994507,-1.353302,2042857.142857,130796043.956044,28961831.501832,121.100647,1,1,1,1,1,25.000000
2025-10-04 16:55:36.809,1.138796339127889,0,0,1.05309123892991,0.5479368622166332,0,0,0.2397111737116586,0.8864364093062097,0,0,0.7381872761340367,0.6700598879150459,0,0,0.6206109592310206,0.5849566587129409,0,0,0.5085880946364779,791.3553113553114,888.8644688644689,452.8937728937729,803.8461538461539,823.992673992674,-0.455139,0.184326,0.885864,2.661743,-4.994507,-1.353302,2042857.142857,130796043.956044,28961831.501832,121.100647,1,1,1,1,1,25.000000
2025-10-04 16:55:36.809,1.138796339127889,0,0,1.05309123892991,0.5479368622166332,0,0,0.2397111737116586,0.8864364093062097,0,0,0.7381872761340367,0.6700598879150459,0,0,0.6206109592310206,0.5849566587129409,0,0,0.5085880946364779,789.7435897435897,875.1648351648352,433.1501831501832,780.8791208791209,720.0366300366301,-0.455139,0.184326,0.885864,2.661743,-4.994507,-1.353302,2042857.142857,130796043.956044,28961831.501832,121.100647,1,1,1,1,1,25.000000
2025-10-04 16:55:36.810,1.138796339127889,0,0,1.05309123892991,0.5479368622166332,0,0,0.2397111737116586,0.8864364093062097,0,0,0.7381872761340367,0.6700598879150459,0,0,0.6206109592310206,0.5849566587129409,0,0,0.5085880946364779,788.5347985347986,846.959706959707,347.7289377289378,776.0439560439561,728.4981684981685,-0.455139,0.184326,0.885864,2.661743,-4.994507,-1.353302,2042857.142857,130796043.956044,28961831.501832,121.100647,1,1,1,1,1,25.000000
2025-10-04 16:55:36.810,1.138796339127889,0,0,1.05309123892991,0.5479368622166332,0,0,0.2397111737116586,0.8864364093062097,0,0,0.7381872761340367,0.6700598879150459,0,0,0.6206109592310206,0.5849566587129409,0,0,0.5085880946364779,785.3113553113553,844.9450549450549,321.5384615384615,786.9230769230769,1010.14652014652,-0.455139,0.184326,0.885864,2.661743,-4.994507,-1.353302,2042857.142857,130796043.956044,28961831.501832,121.100647,1,1,1,1,1,25.000000
2025-10-04 16:55:36.810,1.138796339127889,0,0,1.05309123892991,0.5479368622166332,0,0,0.2397111737116586,0.8864364093062097,0,0,0.7381872761340367,0.6700598879150459,0,0,0.6206109592310206,0.5849566587129409,0,0,0.5085880946364779,793.3699633699634,891.6849816849817,431.5384615384615,783.2967032967033,1047.216117216117,-0.455139,0.184326,0.885864,2.661743,-4.994507,-1.353302,2042857.142857,130796043.956044,28961831.501832,121.100647,1,1,1,1,1,25.000000
2025-10-04 16:55:36.810,1.138796339127889,0,0,1.05309123892991,0.5479368622166332,0,0,0.2397111737116586,0.8864364093062097,0,0,0.7381872761340367,0.6700598879150459,0,0,0.6206109592310206,0.5849566587129409,0,0,0.5085880946364779,793.3699633699634,890.0732600732601,511.3186813186813,786.9230769230769,778.8644688644689,-0.455139,0.184326,0.885864,2.661743,-4.994507,-1.353302,2042857.142857,130796043.956044,28961831.501832,121.100647,1,1,1,1,1,25.000000
2025-10-04 16:55:36.810,1.138796339127889,0,0,1.05309123892991,0.5479368622166332,0,0,0.2397111737116586,0.8864364093062097,0,0,0.7381872761340367,0.6700598879150459,0,0,0.6206109592310206,0.5849566587129409,0,0,0.5085880946364779,792.967032967033,846.5567765567765,398.4981684981685,784.9084249084249,772.4175824175825,-0.455139,0.184326,0.885864,2.661743,-4.994507,-1.353302,2042857.142857,130796043.956044,28961831.501832,121.100647,1,1,1,1,1,25.000000
2025-10-04 16:55:36.810,1.138796339127889,0,0,1.05309123892991,0.5479368622166332,0,0,0.2397111737116586,0.8864364093062097,0,0,0.7381872761340367,0.6700598879150459,0,0,0.6206109592310206,0.5849566587129409,0,0,0.5085880946364779,790.1465201465202,844.9450549450549,333.6263736263737,778.0586080586081,915.8608058608058,-0.455139,0.184326,0.885864,2.661743,-4.994507,-1.353302,2042857.142857,130796043.956044,28961831.501832,121.100647,1,1,1,1,1,25.000000
2025-10-04 16:55:36.811,1.138796339127889,0,0,1.05309123892991,0.5479368622166332,0,0,0.2397111737116586,0.8864364093062097,0,0,0.7381872761340367,0.6700598879150459,0,0,0.6206109592310206,0.5849566587129409,0,0,0.5085880946364779,791.3553113553114,877.1794871794872,451.2820512820513,780.4761904761905,865.8974358974359,-0.455139,0.184326,0.885864,2.661743,-4.994507,-1.353302,2042857.142857,130796043.956044,28961831.501832,121.100647,1,1,1,1,1,25.000000
2025-10-04 16:55:36.811,1.138796339127889,0,0,1.05309123892991,0.5479368622166332,0,0,0.2397111737116586,0.8864364093062097,0,0,0.7381872761340367,0.6700598879150459,0,0,0.6206109592310206,0.5849566587129409,0,0,0.5085880946364779,811.5018315018315,864.6886446886447,501.6483516483516,781.6849816849817,811.0989010989011,-0.455139,0.184326,0.885864,2.661743,-4.994507,-1.353302,2042857.142857,130796043.956044,28961831.501832,121.100647,1,1,1,1,1,25.000000
2025-10-04 16:55:36.811,1.138796339127889,0,0,1.05309123892991,0.5479368622166332,0,0,0.2397111737116586,0.8864364093062097,0,0,0.7381872761340367,0.6700598879150459,0,0,0.6206109592310206,0.5849566587129409,0,0,0.5085880946364779,808.6813186813187,840.1098901098901,427.1062271062271,789.7435897435897,848.5714285714286,-0.455139,0.184326,0.885864,2.661743,-4.994507,-1.353302,2042857.142857,130796043.956044,28961831.501832,121.100647,1,1,1,1,1,25.000000
2025-10-04 16:55:36.811,1.138796339127889,0,0,1.05309123892991,0.5479368622166332,0,0,0.2397111737116586,0.8864364093062097,0,0,0.7381872761340367,0.6700598879150459,0,0,0.6206109592310206,0.5849566587129409,0,0,0.5085880946364779,800.2197802197802,846.1538461538462,395.2747252747253,789.3406593406594,749.047619047619,-0.455139,0.184326,0.885864,2.661743,-4.994507,-1.353302,2042857.142857,130796043.956044,28961831.501832,121.100647,1,1,1,1,1,25.000000
2025-10-04 16:55:36.811,1.138796339127889,0,0,1.05309123892991,0.5479368622166332,0,0,0.2397111737116586,0.8864364093062097,0,0,0.7381872761340367,0.6700598879150459,0,0,0.6206109592310206,0.5849566587129409,0,0,0.5085880946364779,807.0695970695971,850.989010989011,423.8827838827839,784.1025641025641,679.7435897435897,-0.455139,0.184326,0.885864,2.661743,-4.994507,-1.353302,2042857.142857,130796043.956044,28961831.501832,121.100647,1,1,1,1,1,25.000000
2025-10-04 16:55:36.811,1.138796339127889,0,0,1.05309123892991,0.5479368622166332,0,0,0.2397111737116586,0.8864364093062097,0,0,0.7381872761340367,0.6700598879150459,0,0,0.6206109592310206,0.5849566587129409,0,0,0.5085880946364779,800.2197802197802,837.6923076923077,363.4432234432235,791.7582417582418,648.7179487179487,-0.455139,0.184326,0.885864,2.661743,-4.994507,-1.353302,2042857.142857,130796043.956044,28961831.501832,121.100647,1,1,1,1,1,25.000000
2025-10-04 16:55:36.812,1.138796339127889,0,0,1.05309123892991,0.5479368622166332,0,0,0.2397111737116586,0.8864364093062097,0,0,0.7381872761340367,0.6700598879150459,0,0,0.6206109592310206,0.5849566587129409,0,0,0.5085880946364779,810.2930402930403,840.9157509157509,348.1318681318681,793.7728937728938,872.3443223443223,-0.455139,0.184326,0.885864,2.661743,-4.994507,-1.353302,2042857.142857,130796043.956044,28961831.501832,121.100647,1,1,1,1,1,25.000000
2025-10-04 16:55:36.812,1.138796339127889,0,0,1.05309123892991,0.5479368622166332,0,0,0.2397111737116586,0.8864364093062097,0,0,0.7381872761340367,0.6700598879150459,0,0,0.6206109592310206,0.5849566587129409,0,0,0.5085880946364779,827.6190476190476,844.5421245421246,355.7875457875458,801.8315018315019,992.8205128205128,-0.455139,0.184326,0.885864,2.661743,-4.994507,-1.353302,2042857.142857,130796043.956044,28961831.501832,121.100647,1,1,1,1,1,25.000000
2025-10-04 16:55:36.812,,,,,,,,,,,,,,,,,,,,,,,,,,,,,,,,,,,,,,,,,,/muse/elements/jaw_clench
2025-10-04 16:55:36.812,1.102947907896996,0,0,1.05309123892991,0.5011947922783351,0,0,0.2397111737116586,0.8526757930249732,0,0,0.7381872761340367,0.6532154543934031,0,0,0.6206109592310206,0.590938865490819,0,0,0.5085880946364779,807.8754578754579,856.6300366300367,376.7399267399268,807.8754578754579,908.2051282051282,-0.455139,0.184326,0.885864,2.661743,-4.994507,-1.353302,2042857.142857,130796043.956044,28961831.501832,121.100647,1,1,1,1,1,25.000000
2025-10-04 16:55:36.813,1.102947907896996,0,0,1.05309123892991,0.5011947922783351,0,0,0.2397111737116586,0.8526757930249732,0,0,0.7381872761340367,0.6532154543934031,0,0,0.6206109592310206,0.590938865490819,0,0,0.5085880946364779,801.8315018315019,857.032967032967,408.5714285714286,791.7582417582418,855.4212454212454,-0.455139,0.184326,0.885864,2.661743,-4.994507,-1.353302,2042857.142857,130796043.956044,28961831.501832,121.100647,1,1,1,1,1,25.000000
2025-10-04 16:55:36.813,1.102947907896996,0,0,1.05309123892991,0.5011947922783351,0,0,0.2397111737116586,0.8526757930249732,0,0,0.7381872761340367,0.6532154543934031,0,0,0.6206109592310206,0.590938865490819,0,0,0.5085880946364779,808.6813186813187,829.6336996336996,340.0732600732601,789.7435897435897,861.4652014652015,-0.455139,0.184326,0.885864,2.661743,-4.994507,-1.353302,2042857.142857,130796043.956044,28961831.501832,121.100647,1,1,1,1,1,25.000000
2025-10-04 16:55:36.813,1.102947907896996,0,0,1.05309123892991,0.5011947922783351,0,0,0.2397111737116586,0.8526757930249732,0,0,0.7381872761340367,0.6532154543934031,0,0,0.6206109592310206,0.590938865490819,0,0,0.5085880946364779,804.6520146520147,813.5164835164835,194.2124542124542,805.0549450549451,1211.208791208791,-0.455139,0.184326,0.885864,2.661743,-4.994507,-1.353302,2042857.142857,130796043.956044,28961831.501832,121.100647,1,1,1,1,1,25.000000
2025-10-04 16:55:36.813,1.102947907896996,0,0,1.05309123892991,0.5011947922783351,0,0,0.2397111737116586,0.8526757930249732,0,0,0.7381872761340367,0.6532154543934031,0,0,0.6206109592310206,0.590938865490819,0,0,0.5085880946364779,804.2490842490843,867.5091575091575,292.9304029304029,796.1904761904763,984.7619047619048,-0.455139,0.184326,0.885864,2.661743,-4.994507,-1.353302,2042857.142857,130796043.956044,28961831.501832,121.100647,1,1,1,1,1,25.000000
2025-10-04 16:55:36.814,1.102947907896996,0,0,1.05309123892991,0.5011947922783351,0,0,0.2397111737116586,0.8526757930249732,0,0,0.7381872761340367,0.6532154543934031,0,0,0.6206109592310206,0.590938865490819,0,0,0.5085880946364779,805.4578754578755,873.5531135531136,404.5421245421246,792.5641025641025,518.5714285714286,-0.455872,0.180542,0.897461,2.968292,-5.555267,-0.575714,2046080.586081,130839560.439560,28975531.135531,121.100647,1,1,1,1,1,25.000000
2025-10-04 16:55:36.814,1.102947907896996,0,0,1.05309123892991,0.5011947922783351,0,0,0.2397111737116586,0.8526757930249732,0,0,0.7381872761340367,0.6532154543934031,0,0,0.6206109592310206,0.590938865490819,0,0,0.5085880946364779,799.4139194139194,846.1538461538462,365.8608058608059,800.2197802197802,578.6080586080586,-0.455872,0.180542,0.897461,2.968292,-5.555267,-0.575714,2046080.586081,130839560.439560,28975531.135531,121.100647,1,1,1,1,1,25.000000
2025-10-04 16:55:36.814,1.102947907896996,0,0,1.05309123892991,0.5011947922783351,0,0,0.2397111737116586,0.8526757930249732,0,0,0.7381872761340367,0.6532154543934031,0,0,0.6206109592310206,0.590938865490819,0,0,0.5085880946364779,811.0989010989011,856.6300366300367,453.6996336996337,787.7289377289378,711.1721611721612,-0.455872,0.180542,0.897461,2.968292,-5.555267,-0.575714,2046080.586081,130839560.439560,28975531.135531,121.100647,1,1,1,1,1,25.000000
2025-10-04 16:55:36.815,1.102947907896996,0,0,1.05309123892991,0.5011947922783351,0,0,0.2397111737116586,0.8526757930249732,0,0,0.7381872761340367,0.6532154543934031,0,0,0.6206109592310206,0.590938865490819,0,0,0.5085880946364779,796.996336996337,847.3626373626374,484.3223443223443,793.7728937728938,696.2637362637363,-0.455872,0.180542,0.897461,2.968292,-5.555267,-0.575714,2046080.586081,130839560.439560,28975531.135531,121.100647,1,1,1,1,1,25.000000
2025-10-04 16:55:36.815,1.102947907896996,0,0,1.05309123892991,0.5011947922783351,0,0,0.2397111737116586,0.8526757930249732,0,0,0.7381872761340367,0.6532154543934031,0,0,0.6206109592310206,0.590938865490819,0,0,0.5085880946364779,780.0732600732601,830.0366300366301,404.1391941391942,794.5787545787546,644.2857142857143,-0.455872,0.180542,0.897461,2.968292,-5.555267,-0.575714,2046080.586081,130839560.439560,28975531.135531,121.100647,1,1,1,1,1,25.000000
2025-10-04 16:55:36.815,1.102947907896996,0,0,1.05309123892991,0.5011947922783351,0,0,0.2397111737116586,0.8526757930249732,0,0,0.7381872761340367,0.6532154543934031,0,0,0.6206109592310206,0.590938865490819,0,0,0.5085880946364779,791.7582417582418,825.2014652014652,350.5494505494506,765.1648351648352,754.6886446886447,-0.455872,0.180542,0.897461,2.968292,-5.555267,-0.575714,2046080.586081,130839560.439560,28975531.135531,121.100647,1,1,1,1,1,25.000000
2025-10-04 16:55:36.815,1.102947907896996,0,0,1.05309123892991,0.5011947922783351,0,0,0.2397111737116586,0.8526757930249732,0,0,0.7381872761340367,0.6532154543934031,0,0,0.6206109592310206,0.590938865490819,0,0,0.5085880946364779,782.0879120879121,845.7509157509157,394.4688644688645,760.7326007326008,803.040293040293,-0.455872,0.180542,0.897461,2.968292,-5.555267,-0.575714,2046080.586081,130839560.439560,28975531.135531,121.100647,1,1,1,1,1,25.000000
2025-10-04 16:55:36.815,1.102947907896996,0,0,1.05309123892991,0.5011947922783351,0,0,0.2397111737116586,0.8526757930249732,0,0,0.7381872761340367,0.6532154543934031,0,0,0.6206109592310206,0.590938865490819,0,0,0.5085880946364779,785.3113553113553,851.7948717948718,440.4029304029304,776.8498168498169,792.5641025641025,-0.455872,0.180542,0.897461,2.968292,-5.555267,-0.575714,2046080.586081,130839560.439560,28975531.135531,121.100647,1,1,1,1,1,25.000000
2025-10-04 16:55:36.816,1.102947907896996,0,0,1.05309123892991,0.5011947922783351,0,0,0.2397111737116586,0.8526757930249732,0,0,0.7381872761340367,0.6532154543934031,0,0,0.6206109592310206,0.590938865490819,0,0,0.5085880946364779,785.3113553113553,835.2747252747253,413.4065934065934,772.4175824175825,706.3369963369963,-0.455872,0.180542,0.897461,2.968292,-5.555267,-0.575714,2046080.586081,130839560.439560,28975531.135531,121.100647,1,1,1,1,1,25.000000
2025-10-04 16:55:36.816,1.102947907896996,0,0,1.05309123892991,0.5011947922783351,0,0,0.2397111737116586,0.8526757930249732,0,0,0.7381872761340367,0.6532154543934031,0,0,0.6206109592310206,0.590938865490819,0,0,0.5085880946364779,786.5201465201466,790.952380952381,246.996336996337,780.8791208791209,916.6666666666667,-0.455872,0.180542,0.897461,2.968292,-5.555267,-0.575714,2046080.586081,130839560.439560,28975531.135531,121.100647,1,1,1,1,1,25.000000
2025-10-04 16:55:36.816,1.102947907896996,0,0,1.05309123892991,0.5011947922783351,0,0,0.2397111737116586,0.8526757930249732,0,0,0.7381872761340367,0.6532154543934031,0,0,0.6206109592310206,0.590938865490819,0,0,0.5085880946364779,796.1904761904763,831.2454212454213,288.9010989010989,799.4139194139194,955.3479853479854,-0.455872,0.180542,0.897461,2.968292,-5.555267,-0.575714,2046080.586081,130839560.439560,28975531.135531,121.100647,1,1,1,1,1,25.000000
2025-10-04 16:55:36.816,1.102947907896996,0,0,1.05309123892991,0.5011947922783351,0,0,0.2397111737116586,0.8526757930249732,0,0,0.7381872761340367,0.6532154543934031,0,0,0.6206109592310206,0.590938865490819,0,0,0.5085880946364779,788.1318681318681,868.7179487179487,471.8315018315018,796.5934065934066,652.3443223443223,-0.455872,0.180542,0.897461,2.968292,-5.555267,-0.575714,2046080.586081,130839560.439560,28975531.135531,121.100647,1,1,1,1,1,25.000000
2025-10-04 16:55:36.816,1.102947907896996,0,0,1.05309123892991,0.5011947922783351,0,0,0.2397111737116586,0.8526757930249732,0,0,0.7381872761340367,0.6532154543934031,0,0,0.6206109592310206,0.590938865490819,0,0,0.5085880946364779,785.3113553113553,832.4542124542124,396.8864468864469,791.3553113553114,691.025641025641,-0.458923,0.180725,0.890869,2.624359,-5.959015,-0.957031,2046080.586081,130839560.439560,28975531.135531,121.100647,1,1,1,1,1,25.000000
2025-10-04 16:55:36.816,1.102947907896996,0,0,1.05309123892991,0.5011947922783351,0,0,0.2397111737116586,0.8526757930249732,0,0,0.7381872761340367,0.6532154543934031,0,0,0.6206109592310206,0.590938865490819,0,0,0.5085880946364779,796.1904761904763,827.6190476190476,350.952380952381,792.967032967033,698.6813186813187,-0.458923,0.180725,0.890869,2.624359,-5.959015,-0.957031,2046080.586081,130839560.439560,28975531.135531,121.100647,1,1,1,1,1,25.000000
2025-10-04 16:55:36.817,1.102947907896996,0,0,1.05309123892991,0.5011947922783351,0,0,0.2397111737116586,0.8526757930249732,0,0,0.7381872761340367,0.6532154543934031,0,0,0.6206109592310206,0.590938865490819,0,0,0.5085880946364779,786.5201465201466,841.3186813186813,446.4468864468865,796.5934065934066,631.7948717948718,-0.458923,0.180725,0.890869,2.624359,-5.959015,-0.957031,2046080.586081,130839560.439560,28975531.135531,121.100647,1,1,1,1,1,25.000000
2025-10-04 16:55:36.817,1.102947907896996,0,0,1.05309123892991,0.5011947922783351,0,0,0.2397111737116586,0.8526757930249732,0,0,0.7381872761340367,0.6532154543934031,0,0,0.6206109592310206,0.590938865490819,0,0,0.5085880946364779,788.9377289377289,833.6630036630037,465.7875457875458,788.5347985347986,675.3113553113553,-0.458923,0.180725,0.890869,2.624359,-5.959015,-0.957031,2046080.586081,130839560.439560,28975531.135531,121.100647,1,1,1,1,1,25.000000
2025-10-04 16:55:36.817,1.102947907896996,0,0,1.05309123892991,0.5011947922783351,0,0,0.2397111737116586,0.8526757930249732,0,0,0.7381872761340367,0.6532154543934031,0,0,0.6206109592310206,0.590938865490819,0,0,0.5085880946364779,802.6373626373627,814.3223443223443,377.1428571428572,781.6849816849817,785.3113553113553,-0.458923,0.180725,0.890869,2.624359,-5.959015,-0.957031,2046080.586081,130839560.439560,28975531.135531,121.100647,1,1,1,1,1,25.000000
2025-10-04 16:55:36.817,1.102947907896996,0,0,1.05309123892991,0.5011947922783351,0,0,0.2397111737116586,0.8526757930249732,0,0,0.7381872761340367,0.6532154543934031,0,0,0.6206109592310206,0.590938865490819,0,0,0.5085880946364779,796.5934065934066,828.021978021978,340.0732600732601,778.8644688644689,772.4175824175825,-0.458923,0.180725,0.890869,2.624359,-5.959015,-0.957031,2046080.586081,130839560.439560,28975531.135531,121.100647,1,1,1,1,1,25.000000
2025-10-04 16:55:36.817,1.102947907896996,0,0,1.05309123892991,0.5011947922783351,0,0,0.2397111737116586,0.8526757930249732,0,0,0.7381872761340367,0.6532154543934031,0,0,0.6206109592310206,0.590938865490819,0,0,0.5085880946364779,805.8608058608058,848.974358974359,377.5457875457876,790.5494505494506,759.1208791208792,-0.458923,0.180725,0.890869,2.624359,-5.959015,-0.957031,2046080.586081,130839560.439560,28975531.135531,121.100647,1,1,1,1,1,25.000000
2025-10-04 16:55:36.818,1.102947907896996,0,0,1.05309123892991,0.5011947922783351,0,0,0.2397111737116586,0.8526757930249732,0,0,0.7381872761340367,0.6532154543934031,0,0,0.6206109592310206,0.590938865490819,0,0,0.5085880946364779,808.2783882783883,851.7948717948718,397.2893772893773,805.0549450549451,759.1208791208792,-0.458923,0.180725,0.890869,2.624359,-5.959015,-0.957031,2046080.586081,130839560.439560,28975531.135531,121.100647,1,1,1,1,1,25.000000
2025-10-04 16:55:36.818,1.102947907896996,0,0,1.05309123892991,0.5011947922783351,0,0,0.2397111737116586,0.8526757930249732,0,0,0.7381872761340367,0.6532154543934031,0,0,0.6206109592310206,0.590938865490819,0,0,0.5085880946364779,799.4139194139194,813.5164835164835,307.8388278388279,821.1721611721612,895.3113553113553,-0.458923,0.180725,0.890869,2.624359,-5.959015,-0.957031,2046080.586081,130839560.439560,28975531.135531,121.100647,1,1,1,1,1,25.000000
2025-10-04 16:55:36.818,1.067955284253881,0,0,1.05309123892991,0.4606456868006926,0,0,0.2397111737116586,0.8388488673098434,0,0,0.7381872761340367,0.6464507562041782,0,0,0.6206109592310206,0.5982970041807758,0,0,0.5085880946364779,790.952380952381,812.7106227106227,251.4285714285714,831.2454212454213,1161.245421245421,-0.458923,0.180725,0.890869,2.624359,-5.959015,-0.957031,2046080.586081,130839560.439560,28975531.135531,121.100647,1,1,1,1,1,25.000000
2025-10-04 16:55:36.819,1.067955284253881,0,0,1.05309123892991,0.4606456868006926,0,0,0.2397111737116586,0.8388488673098434,0,0,0.7381872761340367,0.6464507562041782,0,0,0.6206109592310206,0.5982970041807758,0,0,0.5085880946364779,803.8461538461539,877.985347985348,443.2234432234432,811.5018315018315,969.4505494505495,-0.458923,0.180725,0.890869,2.624359,-5.959015,-0.957031,2046080.586081,130839560.439560,28975531.135531,121.100647,1,1,1,1,1,25.000000
2025-10-04 16:55:36.819,1.067955284253881,0,0,1.05309123892991,0.4606456868006926,0,0,0.2397111737116586,0.8388488673098434,0,0,0.7381872761340367,0.6464507562041782,0,0,0.6206109592310206,0.5982970041807758,0,0,0.5085880946364779,809.0842490842491,854.2124542124542,474.2490842490843,788.9377289377289,757.5091575091575,-0.458923,0.180725,0.890869,2.624359,-5.959015,-0.957031,2046080.586081,130839560.439560,28975531.135531,121.100647,1,1,1,1,1,25.000000
2025-10-04 16:55:36.820,1.067955284253881,0,0,1.05309123892991,0.4606456868006926,0,0,0.2397111737116586,0.8388488673098434,0,0,0.7381872761340367,0.6464507562041782,0,0,0.6206109592310206,0.5982970041807758,0,0,0.5085880946364779,779.2673992673992,823.5897435897436,379.5604395604396,787.3260073260074,840.5128205128206,-0.457153,0.177063,0.890137,3.005676,-4.448700,-0.994415,2042051.282051,130840366.300366,28972307.692308,121.100647,1,1,1,1,1,25.000000
2025-10-04 16:55:36.820,1.067955284253881,0,0,1.05309123892991,0.4606456868006926,0,0,0.2397111737116586,0.8388488673098434,0,0,0.7381872761340367,0.6464507562041782,0,0,0.6206109592310206,0.5982970041807758,0,0,0.5085880946364779,783.6996336996338,849.7802197802198,445.2380952380952,782.893772893773,846.959706959707,-0.457153,0.177063,0.890137,3.005676,-4.448700,-0.994415,2042051.282051,130840366.300366,28972307.692308,121.100647,1,1,1,1,1,25.000000
2025-10-04 16:55:36.820,1.067955284253881,0,0,1.05309123892991,0.4606456868006926,0,0,0.2397111737116586,0.8388488673098434,0,0,0.7381872761340367,0.6464507562041782,0,0,0.6206109592310206,0.5982970041807758,0,0,0.5085880946364779,801.8315018315019,846.1538461538462,475.8608058608059,783.6996336996338,766.3736263736264,-0.457153,0.177063,0.890137,3.005676,-4.448700,-0.994415,2042051.282051,130840366.300366,28972307.692308,121.100647,1,1,1,1,1,25.000000
2025-10-04 16:55:36.820,1.067955284253881,0,0,1.05309123892991,0.4606456868006926,0,0,0.2397111737116586,0.8388488673098434,0,0,0.7381872761340367,0.6464507562041782,0,0,0.6206109592310206,0.5982970041807758,0,0,0.5085880946364779,798.2051282051282,823.5897435897436,440,783.6996336996338,725.2747252747253,-0.457153,0.177063,0.890137,3.005676,-4.448700,-0.994415,2042051.282051,130840366.300366,28972307.692308,121.100647,1,1,1,1,1,25.000000
2025-10-04 16:55:36.821,1.067955284253881,0,0,1.05309123892991,0.4606456868006926,0,0,0.2397111737116586,0.8388488673098434,0,0,0.7381872761340367,0.6464507562041782,0,0,0.6206109592310206,0.5982970041807758,0,0,0.5085880946364779,785.7142857142858,816.7399267399268,389.6336996336996,777.2527472527473,677.7289377289377,-0.457153,0.177063,0.890137,3.005676,-4.448700,-0.994415,2042051.282051,130840366.300366,28972307.692308,121.100647,1,1,1,1,1,25.000000
2025-10-04 16:55:36.821,1.067955284253881,0,0,1.05309123892991,0.4606456868006926,0,0,0.2397111737116586,0.8388488673098434,0,0,0.7381872761340367,0.6464507562041782,0,0,0.6206109592310206,0.5982970041807758,0,0,0.5085880946364779,794.981684981685,825.6043956043957,377.948717948718,787.3260073260074,784.1025641025641,-0.457153,0.177063,0.890137,3.005676,-4.448700,-0.994415,2042051.282051,130840366.300366,28972307.692308,121.100647,1,1,1,1,1,25.000000
2025-10-04 16:55:36.821,1.067955284253881,0,0,1.05309123892991,0.4606456868006926,0,0,0.2397111737116586,0.8388488673098434,0,0,0.7381872761340367,0.6464507562041782,0,0,0.6206109592310206,0.5982970041807758,0,0,0.5085880946364779,795.3846153846154,826.007326007326,369.0842490842491,790.1465201465202,828.4249084249085,-0.457153,0.177063,0.890137,3.005676,-4.448700,-0.994415,2042051.282051,130840366.300366,28972307.692308,121.100647,1,1,1,1,1,25.000000
2025-10-04 16:55:36.821,1.067955284253881,0,0,1.05309123892991,0.4606456868006926,0,0,0.2397111737116586,0.8388488673098434,0,0,0.7381872761340367,0.6464507562041782,0,0,0.6206109592310206,0.5982970041807758,0,0,0.5085880946364779,785.3113553113553,822.7838827838829,348.5347985347985,781.6849816849817,738.1684981684982,-0.457153,0.177063,0.890137,3.005676,-4.448700,-0.994415,2042051.282051,130840366.300366,28972307.692308,121.100647,1,1,1,1,1,25.000000
2025-10-04 16:55:36.821,1.067955284253881,0,0,1.05309123892991,0.4606456868006926,0,0,0.2397111737116586,0.8388488673098434,0,0,0.7381872761340367,0.6464507562041782,0,0,0.6206109592310206,0.5982970041807758,0,0,0.5085880946364779,787.7289377289378,828.4249084249085,383.1868131868132,794.981684981685,798.6080586080586,-0.457153,0.177063,0.890137,3.005676,-4.448700,-0.994415,2042051.282051,130840366.300366,28972307.692308,121.100647,1,1,1,1,1,25.000000
2025-10-04 16:55:36.821,1.067955284253881,0,0,1.05309123892991,0.4606456868006926,0,0,0.2397111737116586,0.8388488673098434,0,0,0.7381872761340367,0.6464507562041782,0,0,0.6206109592310206,0.5982970041807758,0,0,0.5085880946364779,792.5641025641025,838.901098901099,458.5347985347985,793.3699633699634,832.0512820512821,-0.457153,0.177063,0.890137,3.005676,-4.448700,-0.994415,2042051.282051,130840366.300366,28972307.692308,121.100647,1,1,1,1,1,25.000000
2025-10-04 16:55:36.822,1.067955284253881,0,0,1.05309123892991,0.4606456868006926,0,0,0.2397111737116586,0.8388488673098434,0,0,0.7381872761340367,0.6464507562041782,0,0,0.6206109592310206,0.5982970041807758,0,0,0.5085880946364779,786.9230769230769,836.4835164835165,485.5311355311355,775.2380952380953,699.8901098901099,-0.457153,0.177063,0.890137,3.005676,-4.448700,-0.994415,2042051.282051,130840366.300366,28972307.692308,121.100647,1,1,1,1,1,25.000000
2025-10-04 16:55:36.822,1.067955284253881,0,0,1.05309123892991,0.4606456868006926,0,0,0.2397111737116586,0.8388488673098434,0,0,0.7381872761340367,0.6464507562041782,0,0,0.6206109592310206,0.5982970041807758,0,0,0.5085880946364779,778.0586080586081,805.8608058608058,363.4432234432235,779.6703296703297,702.3076923076924,-0.457153,0.177063,0.890137,3.005676,-4.448700,-0.994415,2042051.282051,130840366.300366,28972307.692308,121.100647,1,1,1,1,1,25.000000
2025-10-04 16:55:36.822,1.067955284253881,0,0,1.05309123892991,0.4606456868006926,0,0,0.2397111737116586,0.8388488673098434,0,0,0.7381872761340367,0.6464507562041782,0,0,0.6206109592310206,0.5982970041807758,0,0,0.5085880946364779,792.1611721611722,813.5164835164835,270.7692307692308,791.3553113553114,875.1648351648352,-0.449341,0.177856,0.895874,3.521576,-4.246826,-0.471039,2042051.282051,130840366.300366,28972307.692308,121.100647,1,1,1,1,1,25.000000
2025-10-04 16:55:36.822,1.067955284253881,0,0,1.05309123892991,0.4606456868006926,0,0,0.2397111737116586,0.8388488673098434,0,0,0.7381872761340367,0.6464507562041782,0,0,0.6206109592310206,0.5982970041807758,0,0,0.5085880946364779,796.1904761904763,861.8681318681319,427.5091575091575,790.5494505494506,797.8021978021978,-0.449341,0.177856,0.895874,3.521576,-4.246826,-0.471039,2042051.282051,130840366.300366,28972307.692308,121.100647,1,1,1,1,1,25.000000
2025-10-04 16:55:36.822,1.067955284253881,0,0,1.05309123892991,0.4606456868006926,0,0,0.2397111737116586,0.8388488673098434,0,0,0.7381872761340367,0.6464507562041782,0,0,0.6206109592310206,0.5982970041807758,0,0,0.5085880946364779,784.5054945054945,849.3772893772895,491.5750915750916,789.7435897435897,674.5054945054945,-0.449341,0.177856,0.895874,3.521576,-4.246826,-0.471039,2042051.282051,130840366.300366,28972307.692308,121.100647,1,1,1,1,1,25.000000
2025-10-04 16:55:36.823,1.067955284253881,0,0,1.05309123892991,0.4606456868006926,0,0,0.2397111737116586,0.8388488673098434,0,0,0.7381872761340367,0.6464507562041782,0,0,0.6206109592310206,0.5982970041807758,0,0,0.5085880946364779,786.1172161172161,810.6959706959707,373.1135531135531,790.1465201465202,822.7838827838829,-0.449341,0.177856,0.895874,3.521576,-4.246826,-0.471039,2042051.282051,130840366.300366,28972307.692308,121.100647,1,1,1,1,1,25.000000
2025-10-04 16:55:36.823,1.067955284253881,0,0,1.05309123892991,0.4606456868006926,0,0,0.2397111737116586,0.8388488673098434,0,0,0.7381872761340367,0.6464507562041782,0,0,0.6206109592310206,0.5982970041807758,0,0,0.5085880946364779,788.9377289377289,812.3076923076924,265.1282051282051,794.5787545787546,1086.300366300366,-0.449341,0.177856,0.895874,3.521576,-4.246826,-0.471039,2042051.282051,130840366.300366,28972307.692308,121.100647,1,1,1,1,1,25.000000
2025-10-04 16:55:36.823,1.067955284253881,0,0,1.05309123892991,0.4606456868006926,0,0,0.2397111737116586,0.8388488673098434,0,0,0.7381872761340367,0.6464507562041782,0,0,0.6206109592310206,0.5982970041807758,0,0,0.5085880946364779,796.996336996337,854.6153846153846,381.1721611721612,796.1904761904763,917.4725274725275,-0.449341,0.177856,0.895874,3.521576,-4.246826,-0.471039,2042051.282051,130840366.300366,28972307.692308,121.100647,1,1,1,1,1,25.000000
2025-10-04 16:55:36.823,1.067955284253881,0,0,1.05309123892991,0.4606456868006926,0,0,0.2397111737116586,0.8388488673098434,0,0,0.7381872761340367,0.6464507562041782,0,0,0.6206109592310206,0.5982970041807758,0,0,0.5085880946364779,805.0549450549451,847.3626373626374,402.5274725274725,786.1172161172161,718.021978021978,-0.449341,0.177856,0.895874,3.521576,-4.246826,-0.471039,2042051.282051,130840366.300366,28972307.692308,121.100647,1,1,1,1,1,25.000000
2025-10-04 16:55:36.823,1.067955284253881,0,0,1.05309123892991,0.4606456868006926,0,0,0.2397111737116586,0.8388488673098434,0,0,0.7381872761340367,0.6464507562041782,0,0,0.6206109592310206,0.5982970041807758,0,0,0.5085880946364779,793.3699633699634,804.2490842490843,300.989010989011,790.952380952381,888.0586080586081,-0.449341,0.177856,0.895874,3.521576,-4.246826,-0.471039,2042051.282051,130840366.300366,28972307.692308,121.100647,1,1,1,1,1,25.000000
2025-10-04 16:55:36.823,1.067955284253881,0,0,1.05309123892991,0.4606456868006926,0,0,0.2397111737116586,0.8388488673098434,0,0,0.7381872761340367,0.6464507562041782,0,0,0.6206109592310206,0.5982970041807758,0,0,0.5085880946364779,787.7289377289378,807.4725274725275,279.6336996336996,798.2051282051282,1074.212454212454,-0.449341,0.177856,0.895874,3.521576,-4.246826,-0.471039,2042051.282051,130840366.300366,28972307.692308,121.100647,1,1,1,1,1,25.000000
2025-10-04 16:55:36.824,1.067955284253881,0,0,1.05309123892991,0.4606456868006926,0,0,0.2397111737116586,0.8388488673098434,0,0,0.7381872761340367,0.6464507562041782,0,0,0.6206109592310206,0.5982970041807758,0,0,0.5085880946364779,779.6703296703297,865.8974358974359,444.4322344322345,781.2820512820513,816.7399267399268,-0.449341,0.177856,0.895874,3.521576,-4.246826,-0.471039,2042051.282051,130840366.300366,28972307.692308,121.100647,1,1,1,1,1,25.000000
2025-10-04 16:55:36.824,1.067955284253881,0,0,1.05309123892991,0.4606456868006926,0,0,0.2397111737116586,0.8388488673098434,0,0,0.7381872761340367,0.6464507562041782,0,0,0.6206109592310206,0.5982970041807758,0,0,0.5085880946364779,771.2087912087912,843.3333333333334,448.8644688644689,778.0586080586081,653.1501831501831,-0.449341,0.177856,0.895874,3.521576,-4.246826,-0.471039,2042051.282051,130840366.300366,28972307.692308,121.100647,1,1,1,1,1,25.000000
2025-10-04 16:55:36.824,1.029597875271215,0,0,1.023807220226371,0.4219826687876999,0,0,0.2489369369022348,0.8379862269475232,0,0,0.7286686546633162,0.6393592755740634,0,0,0.5259708528732492,0.6066640338919451,0,0,0.5104776559936187,768.3882783882784,825.2014652014652,392.051282051282,769.1941391941392,693.4432234432235,-0.449341,0.177856,0.895874,3.521576,-4.246826,-0.471039,2042051.282051,130840366.300366,28972307.692308,121.100647,1,1,1,1,1,25.000000
2025-10-04 16:55:36.825,1.029597875271215,0,0,1.023807220226371,0.4219826687876999,0,0,0.2489369369022348,0.8379862269475232,0,0,0.7286686546633162,0.6393592755740634,0,0,0.5259708528732492,0.6066640338919451,0,0,0.5104776559936187,764.3589743589744,832.4542124542124,436.7765567765568,760.7326007326008,678.5347985347986,-0.449341,0.177856,0.895874,3.521576,-4.246826,-0.471039,2042051.282051,130914505.494505,28993260.073260,121.100647,1,1,1,1,1,25.000000
2025-10-04 16:55:36.826,1.029597875271215,0,0,1.023807220226371,0.4219826687876999,0,0,0.2489369369022348,0.8379862269475232,0,0,0.7286686546633162,0.6393592755740634,0,0,0.5259708528732492,0.6066640338919451,0,0,0.5104776559936187,779.2673992673992,836.0805860805862,474.2490842490843,769.1941391941392,695.0549450549451,-0.449341,0.177856,0.895874,3.521576,-4.246826,-0.471039,2042051.282051,130914505.494505,28993260.073260,121.100647,1,1,1,1,1,25.000000
2025-10-04 16:55:36.826,1.029597875271215,0,0,1.023807220226371,0.4219826687876999,0,0,0.2489369369022348,0.8379862269475232,0,0,0.7286686546633162,0.6393592755740634,0,0,0.5259708528732492,0.6066640338919451,0,0,0.5104776559936187,799.4139194139194,821.1721611721612,421.8681318681319,786.1172161172161,785.7142857142858,-0.449341,0.177856,0.895874,3.521576,-4.246826,-0.471039,2042051.282051,130914505.494505,28993260.073260,121.100647,1,1,1,1,1,25.000000
2025-10-04 16:55:36.826,1.029597875271215,0,0,1.023807220226371,0.4219826687876999,0,0,0.2489369369022348,0.8379862269475232,0,0,0.7286686546633162,0.6393592755740634,0,0,0.5259708528732492,0.6066640338919451,0,0,0.5104776559936187,778.0586080586081,819.96336996337,413.8095238095238,779.6703296703297,853.0036630036631,-0.449341,0.177856,0.895874,3.521576,-4.246826,-0.471039,2042051.282051,130914505.494505,28993260.073260,121.100647,1,1,1,1,1,25.000000
2025-10-04 16:55:36.826,1.029597875271215,0,0,1.023807220226371,0.4219826687876999,0,0,0.2489369369022348,0.8379862269475232,0,0,0.7286686546633162,0.6393592755740634,0,0,0.5259708528732492,0.6066640338919451,0,0,0.5104776559936187,758.3150183150184,828.8278388278388,429.9267399267399,763.956043956044,819.96336996337,-0.449341,0.177856,0.895874,3.521576,-4.246826,-0.471039,2042051.282051,130914505.494505,28993260.073260,121.100647,1,1,1,1,1,25.000000
2025-10-04 16:55:36.826,1.029597875271215,0,0,1.023807220226371,0.4219826687876999,0,0,0.2489369369022348,0.8379862269475232,0,0,0.7286686546633162,0.6393592755740634,0,0,0.5259708528732492,0.6066640338919451,0,0,0.5104776559936187,776.4468864468864,813.1135531135532,377.1428571428572,778.8644688644689,877.985347985348,-0.449341,0.177856,0.895874,3.521576,-4.246826,-0.471039,2042051.282051,130914505.494505,28993260.073260,121.100647,1,1,1,1,1,25.000000
2025-10-04 16:55:36.826,1.029597875271215,0,0,1.023807220226371,0.4219826687876999,0,0,0.2489369369022348,0.8379862269475232,0,0,0.7286686546633162,0.6393592755740634,0,0,0.5259708528732492,0.6066640338919451,0,0,0.5104776559936187,781.6849816849817,813.919413919414,401.7216117216117,780.8791208791209,823.992673992674,-0.449341,0.177856,0.895874,3.521576,-4.246826,-0.471039,2042051.282051,130914505.494505,28993260.073260,121.100647,1,1,1,1,1,25.000000
2025-10-04 16:55:36.826,1.029597875271215,0,0,1.023807220226371,0.4219826687876999,0,0,0.2489369369022348,0.8379862269475232,0,0,0.7286686546633162,0.6393592755740634,0,0,0.5259708528732492,0.6066640338919451,0,0,0.5104776559936187,763.5531135531136,782.893772893773,264.7252747252747,781.2820512820513,893.2967032967033,-0.449341,0.177856,0.895874,3.521576,-4.246826,-0.471039,2042051.282051,130914505.494505,28993260.073260,121.100647,1,1,1,1,1,25.000000
2025-10-04 16:55:36.827,1.029597875271215,0,0,1.023807220226371,0.4219826687876999,0,0,0.2489369369022348,0.8379862269475232,0,0,0.7286686546633162,0.6393592755740634,0,0,0.5259708528732492,0.6066640338919451,0,0,0.5104776559936187,760.7326007326008,813.5164835164835,284.4688644688645,774.0293040293041,997.6556776556777,-0.449341,0.177856,0.895874,3.521576,-4.246826,-0.471039,2042051.282051,130914505.494505,28993260.073260,121.100647,1,1,1,1,1,25.000000
2025-10-04 16:55:36.827,1.029597875271215,0,0,1.023807220226371,0.4219826687876999,0,0,0.2489369369022348,0.8379862269475232,0,0,0.7286686546633162,0.6393592755740634,0,0,0.5259708528732492,0.6066640338919451,0,0,0.5104776559936187,756.7032967032967,851.3919413919414,498.8278388278388,764.3589743589744,744.2124542124542,-0.449341,0.177856,0.895874,3.521576,-4.246826,-0.471039,2042051.282051,130914505.494505,28993260.073260,121.100647,1,1,1,1,1,25.000000
2025-10-04 16:55:36.827,1.029597875271215,0,0,1.023807220226371,0.4219826687876999,0,0,0.2489369369022348,0.8379862269475232,0,0,0.7286686546633162,0.6393592755740634,0,0,0.5259708528732492,0.6066640338919451,0,0,0.5104776559936187,757.9120879120879,795.7875457875458,389.2307692307692,775.2380952380953,678.9377289377289,-0.449341,0.177856,0.895874,3.521576,-4.246826,-0.471039,2042051.282051,130914505.494505,28993260.073260,121.100647,1,1,1,1,1,25.000000
2025-10-04 16:55:36.827,1.029597875271215,0,0,1.023807220226371,0.4219826687876999,0,0,0.2489369369022348,0.8379862269475232,0,0,0.7286686546633162,0.6393592755740634,0,0,0.5259708528732492,0.6066640338919451,0,0,0.5104776559936187,765.1648351648352,788.1318681318681,304.6153846153846,783.6996336996338,713.5897435897436,-0.449341,0.177856,0.895874,3.521576,-4.246826,-0.471039,2042051.282051,130914505.494505,28993260.073260,121.100647,1,1,1,1,1,25.000000
2025-10-04 16:55:36.827,1.029597875271215,0,0,1.023807220226371,0.4219826687876999,0,0,0.2489369369022348,0.8379862269475232,0,0,0.7286686546633162,0.6393592755740634,0,0,0.5259708528732492,0.6066640338919451,0,0,0.5104776559936187,764.3589743589744,812.3076923076924,429.5238095238095,781.6849816849817,645.0915750915751,-0.451477,0.178589,0.892578,3.648682,-4.515991,-0.089722,2042051.282051,130914505.494505,28993260.073260,121.100647,1,1,1,1,1,25.000000
2025-10-04 16:55:36.827,1.029597875271215,0,0,1.023807220226371,0.4219826687876999,0,0,0.2489369369022348,0.8379862269475232,0,0,0.7286686546633162,0.6393592755740634,0,0,0.5259708528732492,0.6066640338919451,0,0,0.5104776559936187,770.4029304029305,809.0842490842491,479.4871794871795,779.6703296703297,630.5860805860806,-0.451477,0.178589,0.892578,3.648682,-4.515991,-0.089722,2042051.282051,130914505.494505,28993260.073260,121.100647,1,1,1,1,1,25.000000
2025-10-04 16:55:36.828,1.029597875271215,0,0,1.023807220226371,0.4219826687876999,0,0,0.2489369369022348,0.8379862269475232,0,0,0.7286686546633162,0.6393592755740634,0,0,0.5259708528732492,0.6066640338919451,0,0,0.5104776559936187,772.8205128205128,788.5347985347986,390.8424908424909,788.9377289377289,767.1794871794872,-0.451477,0.178589,0.892578,3.648682,-4.515991,-0.089722,2042051.282051,130914505.494505,28993260.073260,121.100647,1,1,1,1,1,25.000000
2025-10-04 16:55:36.828,1.029597875271215,0,0,1.023807220226371,0.4219826687876999,0,0,0.2489369369022348,0.8379862269475232,0,0,0.7286686546633162,0.6393592755740634,0,0,0.5259708528732492,0.6066640338919451,0,0,0.5104776559936187,770,796.996336996337,357.8021978021978,784.9084249084249,827.2161172161173,-0.451477,0.178589,0.892578,3.648682,-4.515991,-0.089722,2042051.282051,130914505.494505,28993260.073260,121.100647,1,1,1,1,1,25.000000
2025-10-04 16:55:36.828,1.029597875271215,0,0,1.023807220226371,0.4219826687876999,0,0,0.2489369369022348,0.8379862269475232,0,0,0.7286686546633162,0.6393592755740634,0,0,0.5259708528732492,0.6066640338919451,0,0,0.5104776559936187,780.4761904761905,804.6520146520147,396.0805860805861,775.2380952380953,720.8424908424909,-0.451477,0.178589,0.892578,3.648682,-4.515991,-0.089722,2042051.282051,130914505.494505,28993260.073260,121.100647,1,1,1,1,1,25.000000
2025-10-04 16:55:36.828,1.029597875271215,0,0,1.023807220226371,0.4219826687876999,0,0,0.2489369369022348,0.8379862269475232,0,0,0.7286686546633162,0.6393592755740634,0,0,0.5259708528732492,0.6066640338919451,0,0,0.5104776559936187,782.893772893773,797.3992673992674,373.5164835164835,785.7142857142858,703.5164835164835,-0.451477,0.178589,0.892578,3.648682,-4.515991,-0.089722,2042051.282051,130914505.494505,28993260.073260,121.100647,1,1,1,1,1,25.000000
2025-10-04 16:55:36.828,1.029597875271215,0,0,1.023807220226371,0.4219826687876999,0,0,0.2489369369022348,0.8379862269475232,0,0,0.7286686546633162,0.6393592755740634,0,0,0.5259708528732492,0.6066640338919451,0,0,0.5104776559936187,774.0293040293041,786.1172161172161,339.6703296703297,790.5494505494506,878.3882783882784,-0.451477,0.178589,0.892578,3.648682,-4.515991,-0.089722,2042051.282051,130914505.494505,28993260.073260,121.100647,1,1,1,1,1,25.000000
2025-10-04 16:55:36.828,1.029597875271215,0,0,1.023807220226371,0.4219826687876999,0,0,0.2489369369022348,0.8379862269475232,0,0,0.7286686546633162,0.6393592755740634,0,0,0.5259708528732492,0.6066640338919451,0,0,0.5104776559936187,776.8498168498169,759.5238095238095,203.4798534798535,796.5934065934066,1277.289377289377,-0.451477,0.178589,0.892578,3.648682,-4.515991,-0.089722,2042051.282051,130914505.494505,28993260.073260,121.100647,1,1,1,1,1,25.000000
2025-10-04 16:55:36.829,1.029597875271215,0,0,1.023807220226371,0.4219826687876999,0,0,0.2489369369022348,0.8379862269475232,0,0,0.7286686546633162,0.6393592755740634,0,0,0.5259708528732492,0.6066640338919451,0,0,0.5104776559936187,782.0879120879121,814.7252747252747,325.970695970696,798.6080586080586,1170.915750915751,-0.451477,0.178589,0.892578,3.648682,-4.515991,-0.089722,2042051.282051,130914505.494505,28993260.073260,121.100647,1,1,1,1,1,25.000000
2025-10-04 16:55:36.829,1.029597875271215,0,0,1.023807220226371,0.4219826687876999,0,0,0.2489369369022348,0.8379862269475232,0,0,0.7286686546633162,0.6393592755740634,0,0,0.5259708528732492,0.6066640338919451,0,0,0.5104776559936187,770,830.4395604395604,474.6520146520147,777.6556776556777,764.3589743589744,-0.451477,0.178589,0.892578,3.648682,-4.515991,-0.089722,2042051.282051,130914505.494505,28993260.073260,121.100647,1,1,1,1,1,25.000000
2025-10-04 16:55:36.829,1.029597875271215,0,0,1.023807220226371,0.4219826687876999,0,0,0.2489369369022348,0.8379862269475232,0,0,0.7286686546633162,0.6393592755740634,0,0,0.5259708528732492,0.6066640338919451,0,0,0.5104776559936187,772.014652014652,786.9230769230769,400.5128205128205,781.6849816849817,824.7985347985348,-0.451477,0.178589,0.892578,3.648682,-4.515991,-0.089722,2042051.282051,130914505.494505,28993260.073260,121.100647,1,1,1,1,1,25.000000
2025-10-04 16:55:36.829,1.029597875271215,0,0,1.023807220226371,0.4219826687876999,0,0,0.2489369369022348,0.8379862269475232,0,0,0.7286686546633162,0.6393592755740634,0,0,0.5259708528732492,0.6066640338919451,0,0,0.5104776559936187,783.6996336996338,804.2490842490843,470.6227106227107,784.1025641025641,860.6593406593407,-0.451477,0.178589,0.892578,3.648682,-4.515991,-0.089722,2042051.282051,130914505.494505,28993260.073260,121.100647,1,1,1,1,1,25.000000
2025-10-04 16:55:36.852,1.029597875271215,0,0,1.023807220226371,0.4219826687876999,0,0,0.2489369369022348,0.8379862269475232,0,0,0.7286686546633162,0.6393592755740634,0,0,0.5259708528732492,0.6066640338919451,0,0,0.5104776559936187,775.6410256410256,814.3223443223443,531.8681318681319,779.2673992673992,791.3553113553114,-0.445923,0.178772,0.885498,4.590759,-5.106659,0.807495,2050915.750916,130893553.113553,29026300.366300,121.100647,1,1,1,1,1,25.000000
2025-10-04 16:55:36.853,0.9999841595943361,0,0,0.9789410507322951,0.3980662377463334,0,0,0.2441395568989656,0.7963631259830732,0,0,0.7087804990000646,0.6260779824766349,0,0,0.3982501900203055,0.6194124844592871,0,0,0.5124293974658577,776.4468864468864,787.3260073260074,442.014652014652,797.3992673992674,746.2271062271062,-0.445923,0.178772,0.885498,4.590759,-5.106659,0.807495,2050915.750916,130893553.113553,29026300.366300,121.100647,1,1,1,1,1,25.000000
2025-10-04 16:55:36.853,0.9999841595943361,0,0,0.9789410507322951,0.3980662377463334,0,0,0.2441395568989656,0.7963631259830732,0,0,0.7087804990000646,0.6260779824766349,0,0,0.3982501900203055,0.6194124844592871,0,0,0.5124293974658577,781.6849816849817,784.1025641025641,390.4395604395605,807.8754578754579,700.6959706959707,-0.445923,0.178772,0.885498,4.590759,-5.106659,0.807495,2050915.750916,130893553.113553,29026300.366300,121.100647,1,1,1,1,1,25.000000
2025-10-04 16:55:36.854,0.9999841595943361,0,0,0.9789410507322951,0.3980662377463334,0,0,0.2441395568989656,0.7963631259830732,0,0,0.7087804990000646,0.6260779824766349,0,0,0.3982501900203055,0.6194124844592871,0,0,0.5124293974658577,792.1611721611722,807.0695970695971,499.6336996336996,789.7435897435897,773.2234432234433,-0.445923,0.178772,0.885498,4.590759,-5.106659,0.807495,2050915.750916,130893553.113553,29026300.366300,121.100647,1,1,1,1,1,25.000000
2025-10-04 16:55:36.854,0.9999841595943361,0,0,0.9789410507322951,0.3980662377463334,0,0,0.2441395568989656,0.7963631259830732,0,0,0.7087804990000646,0.6260779824766349,0,0,0.3982501900203055,0.6194124844592871,0,0,0.5124293974658577,780.4761904761905,792.5641025641025,471.4285714285714,778.0586080586081,770,-0.445923,0.178772,0.885498,4.590759,-5.106659,0.807495,2050915.750916,130893553.113553,29026300.366300,121.100647,1,1,1,1,1,25.000000
2025-10-04 16:55:36.854,0.9999841595943361,0,0,0.9789410507322951,0.3980662377463334,0,0,0.2441395568989656,0.7963631259830732,0,0,0.7087804990000646,0.6260779824766349,0,0,0.3982501900203055,0.6194124844592871,0,0,0.5124293974658577,779.2673992673992,766.7765567765568,380.7692307692308,785.7142857142858,782.4908424908425,-0.445923,0.178772,0.885498,4.590759,-5.106659,0.807495,2050915.750916,130893553.113553,29026300.366300,121.100647,1,1,1,1,1,25.000000
2025-10-04 16:55:36.854,0.9999841595943361,0,0,0.9789410507322951,0.3980662377463334,0,0,0.2441395568989656,0.7963631259830732,0,0,0.7087804990000646,0.6260779824766349,0,0,0.3982501900203055,0.6194124844592871,0,0,0.5124293974658577,771.2087912087912,757.1062271062272,307.8388278388279,790.952380952381,1025.457875457875,-0.445923,0.178772,0.885498,4.590759,-5.106659,0.807495,2050915.750916,130893553.113553,29026300.366300,121.100647,1,1,1,1,1,25.000000
2025-10-04 16:55:36.854,0.9999841595943361,0,0,0.9789410507322951,0.3980662377463334,0,0,0.2441395568989656,0.7963631259830732,0,0,0.7087804990000646,0.6260779824766349,0,0,0.3982501900203055,0.6194124844592871,0,0,0.5124293974658577,756.7032967032967,790.952380952381,310.2564102564103,778.8644688644689,971.8681318681319,-0.445923,0.178772,0.885498,4.590759,-5.106659,0.807495,2050915.750916,130893553.113553,29026300.366300,121.100647,1,1,1,1,1,25.000000
2025-10-04 16:55:36.855,0.9999841595943361,0,0,0.9789410507322951,0.3980662377463334,0,0,0.2441395568989656,0.7963631259830732,0,0,0.7087804990000646,0.6260779824766349,0,0,0.3982501900203055,0.6194124844592871,0,0,0.5124293974658577,785.7142857142858,800.6227106227107,408.1684981684982,769.5970695970697,622.5274725274726,-0.445923,0.178772,0.885498,4.590759,-5.106659,0.807495,2050915.750916,130893553.113553,29026300.366300,121.100647,1,1,1,1,1,25.000000
2025-10-04 16:55:36.855,0.9999841595943361,0,0,0.9789410507322951,0.3980662377463334,0,0,0.2441395568989656,0.7963631259830732,0,0,0.7087804990000646,0.6260779824766349,0,0,0.3982501900203055,0.6194124844592871,0,0,0.5124293974658577,780.0732600732601,773.2234432234433,377.5457875457876,775.6410256410256,649.5238095238095,-0.445923,0.178772,0.885498,4.590759,-5.106659,0.807495,2050915.750916,130893553.113553,29026300.366300,121.100647,1,1,1,1,1,25.000000
2025-10-04 16:55:36.855,0.9999841595943361,0,0,0.9789410507322951,0.3980662377463334,0,0,0.2441395568989656,0.7963631259830732,0,0,0.7087804990000646,0.6260779824766349,0,0,0.3982501900203055,0.6194124844592871,0,0,0.5124293974658577,757.9120879120879,774.8351648351648,364.6520146520147,786.5201465201466,836.4835164835165,-0.445923,0.178772,0.885498,4.590759,-5.106659,0.807495,2050915.750916,130893553.113553,29026300.366300,121.100647,1,1,1,1,1,25.000000
2025-10-04 16:55:36.855,0.9999841595943361,0,0,0.9789410507322951,0.3980662377463334,0,0,0.2441395568989656,0.7963631259830732,0,0,0.7087804990000646,0.6260779824766349,0,0,0.3982501900203055,0.6194124844592871,0,0,0.5124293974658577,744.6153846153846,796.996336996337,424.2857142857143,786.9230769230769,714.3956043956044,-0.445923,0.178772,0.885498,4.590759,-5.106659,0.807495,2050915.750916,130893553.113553,29026300.366300,121.100647,1,1,1,1,1,25.000000
2025-10-04 16:55:36.855,0.9999841595943361,0,0,0.9789410507322951,0.3980662377463334,0,0,0.2441395568989656,0.7963631259830732,0,0,0.7087804990000646,0.6260779824766349,0,0,0.3982501900203055,0.6194124844592871,0,0,0.5124293974658577,753.0769230769231,787.3260073260074,413.4065934065934,779.2673992673992,520.989010989011,-0.440857,0.178833,0.887756,5.794525,-5.286102,2.467346,2050915.750916,130893553.113553,29026300.366300,121.100647,1,1,1,1,1,25.000000
2025-10-04 16:55:36.856,0.9999841595943361,0,0,0.9789410507322951,0.3980662377463334,0,0,0.2441395568989656,0.7963631259830732,0,0,0.7087804990000646,0.6260779824766349,0,0,0.3982501900203055,0.6194124844592871,0,0,0.5124293974658577,764.3589743589744,773.6263736263736,400.1098901098901,761.5384615384615,671.2820512820513,-0.440857,0.178833,0.887756,5.794525,-5.286102,2.467346,2050915.750916,130893553.113553,29026300.366300,121.100647,1,1,1,1,1,25.000000
2025-10-04 16:55:36.856,0.9999841595943361,0,0,0.9789410507322951,0.3980662377463334,0,0,0.2441395568989656,0.7963631259830732,0,0,0.7087804990000646,0.6260779824766349,0,0,0.3982501900203055,0.6194124844592871,0,0,0.5124293974658577,763.5531135531136,781.2820512820513,408.1684981684982,751.0622710622711,813.919413919414,-0.440857,0.178833,0.887756,5.794525,-5.286102,2.467346,2050915.750916,130893553.113553,29026300.366300,121.100647,1,1,1,1,1,25.000000
2025-10-04 16:55:36.856,0.9999841595943361,0,0,0.9789410507322951,0.3980662377463334,0,0,0.2441395568989656,0.7963631259830732,0,0,0.7087804990000646,0.6260779824766349,0,0,0.3982501900203055,0.6194124844592871,0,0,0.5124293974658577,771.6117216117216,782.0879120879121,434.3589743589744,778.0586080586081,733.7362637362637,-0.440857,0.178833,0.887756,5.794525,-5.286102,2.467346,2050915.750916,130893553.113553,29026300.366300,121.100647,1,1,1,1,1,25.000000
2025-10-04 16:55:36.856,0.9999841595943361,0,0,0.9789410507322951,0.3980662377463334,0,0,0.2441395568989656,0.7963631259830732,0,0,0.7087804990000646,0.6260779824766349,0,0,0.3982501900203055,0.6194124844592871,0,0,0.5124293974658577,768.7912087912088,766.3736263736264,399.7069597069597,792.1611721611722,792.967032967033,-0.440857,0.178833,0.887756,5.794525,-5.286102,2.467346,2050915.750916,130893553.113553,29026300.366300,121.100647,1,1,1,1,1,25.000000
2025-10-04 16:55:36.856,0.9999841595943361,0,0,0.9789410507322951,0.3980662377463334,0,0,0.2441395568989656,0.7963631259830732,0,0,0.7087804990000646,0.6260779824766349,0,0,0.3982501900203055,0.6194124844592871,0,0,0.5124293974658577,778.0586080586081,745.4212454212454,304.2124542124542,794.5787545787546,1047.216117216117,-0.440857,0.178833,0.887756,5.794525,-5.286102,2.467346,2050915.750916,130893553.113553,29026300.366300,121.100647,1,1,1,1,1,25.000000
2025-10-04 16:55:36.856,0.9999841595943361,0,0,0.9789410507322951,0.3980662377463334,0,0,0.2441395568989656,0.7963631259830732,0,0,0.7087804990000646,0.6260779824766349,0,0,0.3982501900203055,0.6194124844592871,0,0,0.5124293974658577,778.8644688644689,749.4505494505495,229.6703296703297,804.6520146520147,1137.472527472527,-0.440857,0.178833,0.887756,5.794525,-5.286102,2.467346,2050915.750916,130893553.113553,29026300.366300,121.100647,1,1,1,1,1,25.000000
2025-10-04 16:55:36.857,0.9999841595943361,0,0,0.9789410507322951,0.3980662377463334,0,0,0.2441395568989656,0.7963631259830732,0,0,0.7087804990000646,0.6260779824766349,0,0,0.3982501900203055,0.6194124844592871,0,0,0.5124293974658577,771.6117216117216,805.4578754578755,399.7069597069597,793.7728937728938,886.0439560439561,-0.440857,0.178833,0.887756,5.794525,-5.286102,2.467346,2050915.750916,130893553.113553,29026300.366300,121.100647,1,1,1,1,1,25.000000
2025-10-04 16:55:36.857,0.9999841595943361,0,0,0.9789410507322951,0.3980662377463334,0,0,0.2441395568989656,0.7963631259830732,0,0,0.7087804990000646,0.6260779824766349,0,0,0.3982501900203055,0.6194124844592871,0,0,0.5124293974658577,778.8644688644689,795.7875457875458,456.923076923077,808.2783882783883,698.6813186813187,-0.440857,0.178833,0.887756,5.794525,-5.286102,2.467346,2050915.750916,130893553.113553,29026300.366300,121.100647,1,1,1,1,1,25.000000
2025-10-04 16:55:36.857,0.9999841595943361,0,0,0.9789410507322951,0.3980662377463334,0,0,0.2441395568989656,0.7963631259830732,0,0,0.7087804990000646,0.6260779824766349,0,0,0.3982501900203055,0.6194124844592871,0,0,0.5124293974658577,781.6849816849817,755.4945054945055,383.992673992674,817.1428571428571,829.6336996336996,-0.440857,0.178833,0.887756,5.794525,-5.286102,2.467346,2050915.750916,130893553.113553,29026300.366300,121.100647,1,1,1,1,1,25.000000
2025-10-04 16:55:36.857,0.9999841595943361,0,0,0.9789410507322951,0.3980662377463334,0,0,0.2441395568989656,0.7963631259830732,0,0,0.7087804990000646,0.6260779824766349,0,0,0.3982501900203055,0.6194124844592871,0,0,0.5124293974658577,781.2820512820513,761.941391941392,384.7985347985348,802.2344322344322,888.8644688644689,-0.440857,0.178833,0.887756,5.794525,-5.286102,2.467346,2050915.750916,130893553.113553,29026300.366300,121.100647,1,1,1,1,1,25.000000
2025-10-04 16:55:36.857,0.9999841595943361,0,0,0.9789410507322951,0.3980662377463334,0,0,0.2441395568989656,0.7963631259830732,0,0,0.7087804990000646,0.6260779824766349,0,0,0.3982501900203055,0.6194124844592871,0,0,0.5124293974658577,786.9230769230769,776.0439560439561,439.1941391941392,803.8461538461539,752.6739926739926,-0.440857,0.178833,0.887756,5.794525,-5.286102,2.467346,2050915.750916,130893553.113553,29026300.366300,121.100647,1,1,1,1,1,25.000000
2025-10-04 16:55:36.879,0.9999841595943361,0,0,0.9789410507322951,0.3980662377463334,0,0,0.2441395568989656,0.7963631259830732,0,0,0.7087804990000646,0.6260779824766349,0,0,0.3982501900203055,0.6194124844592871,0,0,0.5124293974658577,790.952380952381,760.7326007326008,431.5384615384615,803.8461538461539,668.4615384615385,-0.446167,0.189209,0.896423,7.708588,-4.448700,4.740295,2061391.941392,131007985.347985,29117362.637363,121.100647,1,1,1,1,1,25.000000
2025-10-04 16:55:36.880,0.9999841595943361,0,0,0.9789410507322951,0.3980662377463334,0,0,0.2441395568989656,0.7963631259830732,0,0,0.7087804990000646,0.6260779824766349,0,0,0.3982501900203055,0.6194124844592871,0,0,0.5124293974658577,790.1465201465202,755.0915750915751,353.7728937728938,803.8461538461539,776.4468864468864,-0.446167,0.189209,0.896423,7.708588,-4.448700,4.740295,2061391.941392,131007985.347985,29117362.637363,121.100647,1,1,1,1,1,25.000000
2025-10-04 16:55:36.880,0.9999841595943361,0,0,0.9789410507322951,0.3980662377463334,0,0,0.2441395568989656,0.7963631259830732,0,0,0.7087804990000646,0.6260779824766349,0,0,0.3982501900203055,0.6194124844592871,0,0,0.5124293974658577,792.1611721611722,774.0293040293041,402.5274725274725,808.2783882783883,803.4432234432235,-0.446167,0.189209,0.896423,7.708588,-4.448700,4.740295,2061391.941392,131007985.347985,29117362.637363,121.100647,1,1,1,1,1,25.000000
2025-10-04 16:55:36.881,,,,,,,,,,,,,,,,,,,,,,,,,,,,,,,,,,,,,,,,,,/muse/elements/jaw_clench
2025-10-04 16:55:36.880,0.9394298686297856,0,0,0.9222077327442046,0.3629446129877019,0,0,0.2205829662396274,0.6718860727785669,0,0,0.6493952505407367,0.6202449320192698,0,0,0.2748892542967125,0.6454743078798991,0,0,0.5118871853142875,785.7142857142858,775.2380952380953,467.8021978021978,803.8461538461539,710.7692307692308,-0.446167,0.189209,0.896423,7.708588,-4.448700,4.740295,2061391.941392,131007985.347985,29117362.637363,121.100647,1,1,1,1,1,25.000000
2025-10-04 16:55:36.881,0.9394298686297856,0,0,0.9222077327442046,0.3629446129877019,0,0,0.2205829662396274,0.6718860727785669,0,0,0.6493952505407367,0.6202449320192698,0,0,0.2748892542967125,0.6454743078798991,0,0,0.5118871853142875,778.8644688644689,753.8827838827839,461.7582417582418,802.2344322344322,788.1318681318681,-0.446167,0.189209,0.896423,7.708588,-4.448700,4.740295,2061391.941392,131007985.347985,29117362.637363,121.100647,1,1,1,1,1,25.000000
2025-10-04 16:55:36.881,0.9394298686297856,0,0,0.9222077327442046,0.3629446129877019,0,0,0.2205829662396274,0.6718860727785669,0,0,0.6493952505407367,0.6202449320192698,0,0,0.2748892542967125,0.6454743078798991,0,0,0.5118871853142875,784.5054945054945,740.5860805860806,377.5457875457876,809.4871794871796,903.3699633699634,-0.446167,0.189209,0.896423,7.708588,-4.448700,4.740295,2061391.941392,131007985.347985,29117362.637363,121.100647,1,1,1,1,1,25.000000
2025-10-04 16:55:36.881,0.9394298686297856,0,0,0.9222077327442046,0.3629446129877019,0,0,0.2205829662396274,0.6718860727785669,0,0,0.6493952505407367,0.6202449320192698,0,0,0.2748892542967125,0.6454743078798991,0,0,0.5118871853142875,796.5934065934066,761.941391941392,392.8571428571429,809.4871794871796,857.4358974358975,-0.446167,0.189209,0.896423,7.708588,-4.448700,4.740295,2061391.941392,131007985.347985,29117362.637363,121.100647,1,1,1,1,1,25.000000
2025-10-04 16:55:36.881,0.9394298686297856,0,0,0.9222077327442046,0.3629446129877019,0,0,0.2205829662396274,0.6718860727785669,0,0,0.6493952505407367,0.6202449320192698,0,0,0.2748892542967125,0.6454743078798991,0,0,0.5118871853142875,786.1172161172161,770.4029304029305,456.1172161172161,799.4139194139194,733.3333333333334,-0.446167,0.189209,0.896423,7.708588,-4.448700,4.740295,2061391.941392,131007985.347985,29117362.637363,121.100647,1,1,1,1,1,25.000000
2025-10-04 16:55:36.882,0.9394298686297856,0,0,0.9222077327442046,0.3629446129877019,0,0,0.2205829662396274,0.6718860727785669,0,0,0.6493952505407367,0.6202449320192698,0,0,0.2748892542967125,0.6454743078798991,0,0,0.5118871853142875,781.6849816849817,740.5860805860806,396.4835164835165,804.2490842490843,726.8864468864469,-0.446167,0.189209,0.896423,7.708588,-4.448700,4.740295,2061391.941392,131007985.347985,29117362.637363,121.100647,1,1,1,1,1,25.000000
2025-10-04 16:55:36.882,0.9394298686297856,0,0,0.9222077327442046,0.3629446129877019,0,0,0.2205829662396274,0.6718860727785669,0,0,0.6493952505407367,0.6202449320192698,0,0,0.2748892542967125,0.6454743078798991,0,0,0.5118871853142875,783.2967032967033,731.3186813186813,325.1648351648352,829.6336996336996,938.8278388278388,-0.446167,0.189209,0.896423,7.708588,-4.448700,4.740295,2061391.941392,131007985.347985,29117362.637363,121.100647,1,1,1,1,1,25.000000
2025-10-04 16:55:36.882,0.9394298686297856,0,0,0.9222077327442046,0.3629446129877019,0,0,0.2205829662396274,0.6718860727785669,0,0,0.6493952505407367,0.6202449320192698,0,0,0.2748892542967125,0.6454743078798991,0,0,0.5118871853142875,782.0879120879121,769.5970695970697,410.1831501831502,817.5457875457876,943.6630036630037,-0.446167,0.189209,0.896423,7.708588,-4.448700,4.740295,2061391.941392,131007985.347985,29117362.637363,121.100647,1,1,1,1,1,25.000000
2025-10-04 16:55:36.882,0.9394298686297856,0,0,0.9222077327442046,0.3629446129877019,0,0,0.2205829662396274,0.6718860727785669,0,0,0.6493952505407367,0.6202449320192698,0,0,0.2748892542967125,0.6454743078798991,0,0,0.5118871853142875,794.5787545787546,770,464.981684981685,794.981684981685,684.5787545787546,-0.446167,0.189209,0.896423,7.708588,-4.448700,4.740295,2061391.941392,131007985.347985,29117362.637363,121.100647,1,1,1,1,1,25.000000
2025-10-04 16:55:36.945,0.9394298686297856,0,0,0.9222077327442046,0.3629446129877019,0,0,0.2205829662396274,0.6718860727785669,0,0,0.6493952505407367,0.6202449320192698,0,0,0.2748892542967125,0.6454743078798991,0,0,0.5118871853142875,791.3553113553114,732.5274725274726,363.8461538461539,797.8021978021978,670.0732600732601,-0.452087,0.193054,0.898804,5.973969,-3.215027,3.708496,2061391.941392,131007985.347985,29117362.637363,121.100647,1,1,1,1,1,25.000000
2025-10-04 16:55:36.945,0.9394298686297856,0,0,0.9222077327442046,0.3629446129877019,0,0,0.2205829662396274,0.6718860727785669,0,0,0.6493952505407367,0.6202449320192698,0,0,0.2748892542967125,0.6454743078798991,0,0,0.5118871853142875,797.3992673992674,734.5421245421246,305.4212454212454,799.8168498168499,799.0109890109891,-0.452087,0.193054,0.898804,5.973969,-3.215027,3.708496,2061391.941392,131007985.347985,29117362.637363,121.100647,1,1,1,1,1,25.000000
2025-10-04 16:55:36.945,0.9394298686297856,0,0,0.9222077327442046,0.3629446129877019,0,0,0.2205829662396274,0.6718860727785669,0,0,0.6493952505407367,0.6202449320192698,0,0,0.2748892542967125,0.6454743078798991,0,0,0.5118871853142875,803.8461538461539,763.5531135531136,433.5531135531136,815.5311355311355,775.2380952380953,-0.452087,0.193054,0.898804,5.973969,-3.215027,3.708496,2061391.941392,131007985.347985,29117362.637363,121.100647,1,1,1,1,1,25.000000
2025-10-04 16:55:36.946,0.9394298686297856,0,0,0.9222077327442046,0.3629446129877019,0,0,0.2205829662396274,0.6718860727785669,0,0,0.6493952505407367,0.6202449320192698,0,0,0.2748892542967125,0.6454743078798991,0,0,0.5118871853142875,784.9084249084249,754.6886446886447,448.0586080586081,819.5604395604396,675.3113553113553,-0.452087,0.193054,0.898804,5.973969,-3.215027,3.708496,2061391.941392,131007985.347985,29117362.637363,121.100647,1,1,1,1,1,25.000000
2025-10-04 16:55:36.946,0.9394298686297856,0,0,0.9222077327442046,0.3629446129877019,0,0,0.2205829662396274,0.6718860727785669,0,0,0.6493952505407367,0.6202449320192698,0,0,0.2748892542967125,0.6454743078798991,0,0,0.5118871853142875,785.3113553113553,715.6043956043957,330,824.3956043956044,856.6300366300367,-0.452087,0.193054,0.898804,5.973969,-3.215027,3.708496,2061391.941392,131007985.347985,29117362.637363,121.100647,1,1,1,1,1,25.000000
2025-10-04 16:55:36.946,0.9394298686297856,0,0,0.9222077327442046,0.3629446129877019,0,0,0.2205829662396274,0.6718860727785669,0,0,0.6493952505407367,0.6202449320192698,0,0,0.2748892542967125,0.6454743078798991,0,0,0.5118871853142875,802.6373626373627,726.8864468864469,260.6959706959707,830.8424908424909,1064.945054945055,-0.452087,0.193054,0.898804,5.973969,-3.215027,3.708496,2061391.941392,131007985.347985,29117362.637363,121.100647,1,1,1,1,1,25.000000
2025-10-04 16:55:36.946,0.9394298686297856,0,0,0.9222077327442046,0.3629446129877019,0,0,0.2205829662396274,0.6718860727785669,0,0,0.6493952505407367,0.6202449320192698,0,0,0.2748892542967125,0.6454743078798991,0,0,0.5118871853142875,802.2344322344322,775.2380952380953,369.8901098901099,824.3956043956044,844.5421245421246,-0.452087,0.193054,0.898804,5.973969,-3.215027,3.708496,2061391.941392,131007985.347985,29117362.637363,121.100647,1,1,1,1,1,25.000000
2025-10-04 16:55:36.946,0.9394298686297856,0,0,0.9222077327442046,0.3629446129877019,0,0,0.2205829662396274,0.6718860727785669,0,0,0.6493952505407367,0.6202449320192698,0,0,0.2748892542967125,0.6454743078798991,0,0,0.5118871853142875,794.5787545787546,767.1794871794872,390.0366300366301,817.948717948718,725.6776556776557,-0.452087,0.193054,0.898804,5.973969,-3.215027,3.708496,2061391.941392,131007985.347985,29117362.637363,121.100647,1,1,1,1,1,25.000000
2025-10-04 16:55:36.947,0.9394298686297856,0,0,0.9222077327442046,0.3629446129877019,0,0,0.2205829662396274,0.6718860727785669,0,0,0.6493952505407367,0.6202449320192698,0,0,0.2748892542967125,0.6454743078798991,0,0,0.5118871853142875,801.4285714285714,738.1684981684982,313.0769230769231,830.4395604395604,942.8571428571429,-0.452087,0.193054,0.898804,5.973969,-3.215027,3.708496,2061391.941392,131007985.347985,29117362.637363,121.100647,1,1,1,1,1,25.000000
2025-10-04 16:55:36.947,0.9394298686297856,0,0,0.9222077327442046,0.3629446129877019,0,0,0.2205829662396274,0.6718860727785669,0,0,0.6493952505407367,0.6202449320192698,0,0,0.2748892542967125,0.6454743078798991,0,0,0.5118871853142875,812.3076923076924,745.4212454212454,315.0915750915751,842.9304029304029,1057.289377289377,-0.452087,0.193054,0.898804,5.973969,-3.215027,3.708496,2061391.941392,131007985.347985,29117362.637363,121.100647,1,1,1,1,1,25.000000
2025-10-04 16:55:36.947,0.9394298686297856,0,0,0.9222077327442046,0.3629446129877019,0,0,0.2205829662396274,0.6718860727785669,0,0,0.6493952505407367,0.6202449320192698,0,0,0.2748892542967125,0.6454743078798991,0,0,0.5118871853142875,809.0842490842491,780.8791208791209,460.952380952381,831.2454212454213,791.7582417582418,-0.452087,0.193054,0.898804,5.973969,-3.215027,3.708496,2061391.941392,131007985.347985,29117362.637363,121.100647,1,1,1,1,1,25.000000
2025-10-04 16:55:36.947,0.9394298686297856,0,0,0.9222077327442046,0.3629446129877019,0,0,0.2205829662396274,0.6718860727785669,0,0,0.6493952505407367,0.6202449320192698,0,0,0.2748892542967125,0.6454743078798991,0,0,0.5118871853142875,799.4139194139194,753.0769230769231,445.6410256410256,817.5457875457876,674.9084249084249,-0.452087,0.193054,0.898804,5.973969,-3.215027,3.708496,2061391.941392,131007985.347985,29117362.637363,121.100647,1,1,1,1,1,25.000000
2025-10-04 16:55:36.969,0.9394298686297856,0,0,0.9222077327442046,0.3629446129877019,0,0,0.2205829662396274,0.6718860727785669,0,0,0.6493952505407367,0.6202449320192698,0,0,0.2748892542967125,0.6454743078798991,0,0,0.5118871853142875,803.8461538461539,749.8534798534798,394.4688644688645,814.3223443223443,726.0805860805862,-0.452087,0.193054,0.898804,5.973969,-3.215027,3.708496,2070256.410256,131284395.604396,29164102.564103,121.100647,1,1,1,1,1,25.000000
2025-10-04 16:55:36.970,0.9394298686297856,0,0,0.9222077327442046,0.3629446129877019,0,0,0.2205829662396274,0.6718860727785669,0,0,0.6493952505407367,0.6202449320192698,0,0,0.2748892542967125,0.6454743078798991,0,0,0.5118871853142875,815.5311355311355,770.4029304029305,457.7289377289378,819.1575091575091,752.2710622710623,-0.452087,0.193054,0.898804,5.973969,-3.215027,3.708496,2070256.410256,131284395.604396,29164102.564103,121.100647,1,1,1,1,1,25.000000
2025-10-04 16:55:36.970,0.9394298686297856,0,0,0.9222077327442046,0.3629446129877019,0,0,0.2205829662396274,0.6718860727785669,0,0,0.6493952505407367,0.6202449320192698,0,0,0.2748892542967125,0.6454743078798991,0,0,0.5118871853142875,806.2637362637363,766.3736263736264,475.8608058608059,814.7252747252747,790.1465201465202,-0.452087,0.193054,0.898804,5.973969,-3.215027,3.708496,2070256.410256,131284395.604396,29164102.564103,121.100647,1,1,1,1,1,25.000000
2025-10-04 16:55:36.970,0.9394298686297856,0,0,0.9222077327442046,0.3629446129877019,0,0,0.2205829662396274,0.6718860727785669,0,0,0.6493952505407367,0.6202449320192698,0,0,0.2748892542967125,0.6454743078798991,0,0,0.5118871853142875,798.2051282051282,745.0183150183151,409.3772893772894,807.0695970695971,754.6886446886447,-0.452087,0.193054,0.898804,5.973969,-3.215027,3.708496,2070256.410256,131284395.604396,29164102.564103,121.100647,1,1,1,1,1,25.000000
2025-10-04 16:55:36.970,0.9394298686297856,0,0,0.9222077327442046,0.3629446129877019,0,0,0.2205829662396274,0.6718860727785669,0,0,0.6493952505407367,0.6202449320192698,0,0,0.2748892542967125,0.6454743078798991,0,0,0.5118871853142875,804.6520146520147,742.1978021978023,373.919413919414,813.919413919414,794.1758241758242,-0.452087,0.193054,0.898804,5.973969,-3.215027,3.708496,2070256.410256,131284395.604396,29164102.564103,121.100647,1,1,1,1,1,25.000000
2025-10-04 16:55:36.970,0.8273748652546525,0,0,0.8734034827864217,0.3296590006591498,0,0,0.2000656333582821,0.5625397796366839,0,0,0.5669057972926473,0.6313682219450255,0,0,0.1987392079302808,0.6842309515928321,0,0,0.5074551724886532,818.3516483516484,751.8681318681319,367.4725274725275,823.5897435897436,834.8717948717949,-0.452087,0.193054,0.898804,5.973969,-3.215027,3.708496,2070256.410256,131284395.604396,29164102.564103,121.100647,1,1,1,1,1,25.000000
2025-10-04 16:55:36.971,0.8273748652546525,0,0,0.8734034827864217,0.3296590006591498,0,0,0.2000656333582821,0.5625397796366839,0,0,0.5669057972926473,0.6313682219450255,0,0,0.1987392079302808,0.6842309515928321,0,0,0.5074551724886532,820.3663003663004,766.3736263736264,415.018315018315,816.3369963369963,771.6117216117216,-0.452087,0.193054,0.898804,5.973969,-3.215027,3.708496,2070256.410256,131284395.604396,29164102.564103,121.100647,1,1,1,1,1,25.000000
2025-10-04 16:55:36.972,0.8273748652546525,0,0,0.8734034827864217,0.3296590006591498,0,0,0.2000656333582821,0.5625397796366839,0,0,0.5669057972926473,0.6313682219450255,0,0,0.1987392079302808,0.6842309515928321,0,0,0.5074551724886532,807.8754578754579,764.3589743589744,401.7216117216117,821.978021978022,709.9633699633699,-0.452087,0.193054,0.898804,5.973969,-3.215027,3.708496,2070256.410256,131284395.604396,29164102.564103,121.100647,1,1,1,1,1,25.000000
2025-10-04 16:55:36.972,0.8273748652546525,0,0,0.8734034827864217,0.3296590006591498,0,0,0.2000656333582821,0.5625397796366839,0,0,0.5669057972926473,0.6313682219450255,0,0,0.1987392079302808,0.6842309515928321,0,0,0.5074551724886532,799.0109890109891,743.8095238095239,304.2124542124542,836.0805860805862,867.1062271062272,-0.452087,0.193054,0.898804,5.973969,-3.215027,3.708496,2070256.410256,131284395.604396,29164102.564103,121.100647,1,1,1,1,1,25.000000
2025-10-04 16:55:36.972,0.8273748652546525,0,0,0.8734034827864217,0.3296590006591498,0,0,0.2000656333582821,0.5625397796366839,0,0,0.5669057972926473,0.6313682219450255,0,0,0.1987392079302808,0.6842309515928321,0,0,0.5074551724886532,806.6666666666667,779.2673992673992,389.6336996336996,819.5604395604396,842.1245421245421,-0.452087,0.193054,0.898804,5.973969,-3.215027,3.708496,2070256.410256,131284395.604396,29164102.564103,121.100647,1,1,1,1,1,25.000000
2025-10-04 16:55:36.972,0.8273748652546525,0,0,0.8734034827864217,0.3296590006591498,0,0,0.2000656333582821,0.5625397796366839,0,0,0.5669057972926473,0.6313682219450255,0,0,0.1987392079302808,0.6842309515928321,0,0,0.5074551724886532,815.5311355311355,787.3260073260074,467.8021978021978,804.6520146520147,618.0952380952381,-0.452087,0.193054,0.898804,5.973969,-3.215027,3.708496,2070256.410256,131284395.604396,29164102.564103,121.100647,1,1,1,1,1,25.000000
2025-10-04 16:55:36.972,0.8273748652546525,0,0,0.8734034827864217,0.3296590006591498,0,0,0.2000656333582821,0.5625397796366839,0,0,0.5669057972926473,0.6313682219450255,0,0,0.1987392079302808,0.6842309515928321,0,0,0.5074551724886532,801.4285714285714,759.1208791208792,368.6813186813187,815.5311355311355,689.4139194139194,-0.452087,0.193054,0.898804,5.973969,-3.215027,3.708496,2070256.410256,131284395.604396,29164102.564103,121.100647,1,1,1,1,1,25.000000
2025-10-04 16:55:37.014,0.8273748652546525,0,0,0.8734034827864217,0.3296590006591498,0,0,0.2000656333582821,0.5625397796366839,0,0,0.5669057972926473,0.6313682219450255,0,0,0.1987392079302808,0.6842309515928321,0,0,0.5074551724886532,784.5054945054945,755.8974358974359,325.1648351648352,819.96336996337,824.7985347985348,-0.443665,0.203613,0.888672,5.136566,-4.127197,2.452393,2070256.410256,131284395.604396,29164102.564103,121.100647,1,1,1,1,1,25.000000
2025-10-04 16:55:37.014,0.8273748652546525,0,0,0.8734034827864217,0.3296590006591498,0,0,0.2000656333582821,0.5625397796366839,0,0,0.5669057972926473,0.6313682219450255,0,0,0.1987392079302808,0.6842309515928321,0,0,0.5074551724886532,788.5347985347986,770.4029304029305,421.0622710622711,818.7545787545788,744.2124542124542,-0.443665,0.203613,0.888672,5.136566,-4.127197,2.452393,2070256.410256,131284395.604396,29164102.564103,121.100647,1,1,1,1,1,25.000000
2025-10-04 16:55:37.015,0.8273748652546525,0,0,0.8734034827864217,0.3296590006591498,0,0,0.2000656333582821,0.5625397796366839,0,0,0.5669057972926473,0.6313682219450255,0,0,0.1987392079302808,0.6842309515928321,0,0,0.5074551724886532,799.8168498168499,771.2087912087912,463.7728937728938,826.8131868131868,626.1538461538462,-0.443665,0.203613,0.888672,5.136566,-4.127197,2.452393,2070256.410256,131284395.604396,29164102.564103,121.100647,1,1,1,1,1,25.000000
2025-10-04 16:55:37.015,0.8273748652546525,0,0,0.8734034827864217,0.3296590006591498,0,0,0.2000656333582821,0.5625397796366839,0,0,0.5669057972926473,0.6313682219450255,0,0,0.1987392079302808,0.6842309515928321,0,0,0.5074551724886532,805.0549450549451,743.0036630036631,381.1721611721612,840.9157509157509,825.2014652014652,-0.443665,0.203613,0.888672,5.136566,-4.127197,2.452393,2070256.410256,131284395.604396,29164102.564103,121.100647,1,1,1,1,1,25.000000
2025-10-04 16:55:37.015,0.8273748652546525,0,0,0.8734034827864217,0.3296590006591498,0,0,0.2000656333582821,0.5625397796366839,0,0,0.5669057972926473,0.6313682219450255,0,0,0.1987392079302808,0.6842309515928321,0,0,0.5074551724886532,814.7252747252747,740.989010989011,294.5421245421246,838.0952380952381,992.4175824175825,-0.443665,0.203613,0.888672,5.136566,-4.127197,2.452393,2070256.410256,131284395.604396,29164102.564103,121.100647,1,1,1,1,1,25.000000
2025-10-04 16:55:37.015,0.8273748652546525,0,0,0.8734034827864217,0.3296590006591498,0,0,0.2000656333582821,0.5625397796366839,0,0,0.5669057972926473,0.6313682219450255,0,0,0.1987392079302808,0.6842309515928321,0,0,0.5074551724886532,816.7399267399268,776.8498168498169,373.919413919414,827.6190476190476,807.4725274725275,-0.443665,0.203613,0.888672,5.136566,-4.127197,2.452393,2070256.410256,131284395.604396,29164102.564103,121.100647,1,1,1,1,1,25.000000
2025-10-04 16:55:37.015,0.8273748652546525,0,0,0.8734034827864217,0.3296590006591498,0,0,0.2000656333582821,0.5625397796366839,0,0,0.5669057972926473,0.6313682219450255,0,0,0.1987392079302808,0.6842309515928321,0,0,0.5074551724886532,805.0549450549451,780.0732600732601,392.8571428571429,823.5897435897436,745.8241758241759,-0.443665,0.203613,0.888672,5.136566,-4.127197,2.452393,2070256.410256,131284395.604396,29164102.564103,121.100647,1,1,1,1,1,25.000000
2025-10-04 16:55:37.016,0.8273748652546525,0,0,0.8734034827864217,0.3296590006591498,0,0,0.2000656333582821,0.5625397796366839,0,0,0.5669057972926473,0.6313682219450255,0,0,0.1987392079302808,0.6842309515928321,0,0,0.5074551724886532,803.8461538461539,753.8827838827839,321.1355311355312,820.3663003663004,857.4358974358975,-0.443665,0.203613,0.888672,5.136566,-4.127197,2.452393,2070256.410256,131284395.604396,29164102.564103,121.100647,1,1,1,1,1,25.000000
2025-10-04 16:55:37.016,0.8273748652546525,0,0,0.8734034827864217,0.3296590006591498,0,0,0.2000656333582821,0.5625397796366839,0,0,0.5669057972926473,0.6313682219450255,0,0,0.1987392079302808,0.6842309515928321,0,0,0.5074551724886532,794.981684981685,727.6923076923077,179.3040293040293,826.007326007326,1131.428571428572,-0.443665,0.203613,0.888672,5.136566,-4.127197,2.452393,2070256.410256,131284395.604396,29164102.564103,121.100647,1,1,1,1,1,25.000000
2025-10-04 16:55:37.016,0.8273748652546525,0,0,0.8734034827864217,0.3296590006591498,0,0,0.2000656333582821,0.5625397796366839,0,0,0.5669057972926473,0.6313682219450255,0,0,0.1987392079302808,0.6842309515928321,0,0,0.5074551724886532,809.0842490842491,786.5201465201466,315.4945054945055,822.7838827838829,1031.098901098901,-0.443665,0.203613,0.888672,5.136566,-4.127197,2.452393,2070256.410256,131284395.604396,29164102.564103,121.100647,1,1,1,1,1,25.000000
2025-10-04 16:55:37.016,0.8273748652546525,0,0,0.8734034827864217,0.3296590006591498,0,0,0.2000656333582821,0.5625397796366839,0,0,0.5669057972926473,0.6313682219450255,0,0,0.1987392079302808,0.6842309515928321,0,0,0.5074551724886532,814.7252747252747,796.996336996337,436.3736263736264,824.3956043956044,690.2197802197802,-0.443665,0.203613,0.888672,5.136566,-4.127197,2.452393,2070256.410256,131284395.604396,29164102.564103,121.100647,1,1,1,1,1,25.000000
2025-10-04 16:55:37.016,0.8273748652546525,0,0,0.8734034827864217,0.3296590006591498,0,0,0.2000656333582821,0.5625397796366839,0,0,0.5669057972926473,0.6313682219450255,0,0,0.1987392079302808,0.6842309515928321,0,0,0.5074551724886532,801.8315018315019,771.6117216117216,394.4688644688645,813.1135531135532,685.3846153846154,-0.443665,0.203613,0.888672,5.136566,-4.127197,2.452393,2070256.410256,131284395.604396,29164102.564103,121.100647,1,1,1,1,1,25.000000
2025-10-04 16:55:37.066,0.8273748652546525,0,0,0.8734034827864217,0.3296590006591498,0,0,0.2000656333582821,0.5625397796366839,0,0,0.5669057972926473,0.6313682219450255,0,0,0.1987392079302808,0.6842309515928321,0,0,0.5074551724886532,802.6373626373627,790.952380952381,462.967032967033,804.2490842490843,735.7509157509157,-0.444824,0.207764,0.884338,5.824432,-4.329071,3.499146,2071868.131868,131518901.098901,29211648.351648,121.100647,1,1,1,1,1,25.000000
2025-10-04 16:55:37.066,0.8273748652546525,0,0,0.8734034827864217,0.3296590006591498,0,0,0.2000656333582821,0.5625397796366839,0,0,0.5669057972926473,0.6313682219450255,0,0,0.1987392079302808,0.6842309515928321,0,0,0.5074551724886532,799.4139194139194,781.2820512820513,455.7142857142857,817.948717948718,643.0769230769231,-0.444824,0.207764,0.884338,5.824432,-4.329071,3.499146,2071868.131868,131518901.098901,29211648.351648,121.100647,1,1,1,1,1,25.000000
2025-10-04 16:55:37.066,0.8273748652546525,0,0,0.8734034827864217,0.3296590006591498,0,0,0.2000656333582821,0.5625397796366839,0,0,0.5669057972926473,0.6313682219450255,0,0,0.1987392079302808,0.6842309515928321,0,0,0.5074551724886532,803.040293040293,765.1648351648352,358.2051282051282,822.7838827838829,535.8974358974359,-0.444824,0.207764,0.884338,5.824432,-4.329071,3.499146,2071868.131868,131518901.098901,29211648.351648,121.100647,1,1,1,1,1,25.000000
2025-10-04 16:55:37.066,0.8273748652546525,0,0,0.8734034827864217,0.3296590006591498,0,0,0.2000656333582821,0.5625397796366839,0,0,0.5669057972926473,0.6313682219450255,0,0,0.1987392079302808,0.6842309515928321,0,0,0.5074551724886532,803.4432234432235,777.2527472527473,381.1721611721612,813.1135531135532,633.8095238095239,-0.444824,0.207764,0.884338,5.824432,-4.329071,3.499146,2071868.131868,131518901.098901,29211648.351648,121.100647,1,1,1,1,1,25.000000
2025-10-04 16:55:37.066,0.8273748652546525,0,0,0.8734034827864217,0.3296590006591498,0,0,0.2000656333582821,0.5625397796366839,0,0,0.5669057972926473,0.6313682219450255,0,0,0.1987392079302808,0.6842309515928321,0,0,0.5074551724886532,801.4285714285714,791.7582417582418,464.5787545787546,806.2637362637363,775.2380952380953,-0.444824,0.207764,0.884338,5.824432,-4.329071,3.499146,2071868.131868,131518901.098901,29211648.351648,121.100647,1,1,1,1,1,25.000000
2025-10-04 16:55:37.067,0.8273748652546525,0,0,0.8734034827864217,0.3296590006591498,0,0,0.2000656333582821,0.5625397796366839,0,0,0.5669057972926473,0.6313682219450255,0,0,0.1987392079302808,0.6842309515928321,0,0,0.5074551724886532,792.1611721611722,780.4761904761905,392.4542124542124,798.2051282051282,790.952380952381,-0.444824,0.207764,0.884338,5.824432,-4.329071,3.499146,2071868.131868,131518901.098901,29211648.351648,121.100647,1,1,1,1,1,25.000000
2025-10-04 16:55:37.067,0.8273748652546525,0,0,0.8734034827864217,0.3296590006591498,0,0,0.2000656333582821,0.5625397796366839,0,0,0.5669057972926473,0.6313682219450255,0,0,0.1987392079302808,0.6842309515928321,0,0,0.5074551724886532,789.7435897435897,790.1465201465202,394.4688644688645,797.3992673992674,907.3992673992674,-0.444824,0.207764,0.884338,5.824432,-4.329071,3.499146,2071868.131868,131518901.098901,29211648.351648,121.100647,1,1,1,1,1,25.000000
2025-10-04 16:55:37.067,0.5900026940517346,0,0,0.8429894486226354,0.3119387330511849,0,0,0.2070672679426692,0.1467160422395884,0,0,0.5155680957144302,0.6612948020920587,0,0,0.1739863935116069,0.7337210551492226,0,0,0.5012628471523773,796.1904761904763,776.4468864468864,331.6117216117216,811.0989010989011,1106.446886446887,-0.444824,0.207764,0.884338,5.824432,-4.329071,3.499146,2071868.131868,131518901.098901,29211648.351648,121.100647,1,1,1,1,1,25.000000
2025-10-04 16:55:37.068,0.5900026940517346,0,0,0.8429894486226354,0.3119387330511849,0,0,0.2070672679426692,0.1467160422395884,0,0,0.5155680957144302,0.6612948020920587,0,0,0.1739863935116069,0.7337210551492226,0,0,0.5012628471523773,795.3846153846154,792.5641025641025,324.7619047619048,808.6813186813187,965.4212454212454,-0.444824,0.207764,0.884338,5.824432,-4.329071,3.499146,2071868.131868,131518901.098901,29211648.351648,121.100647,1,1,1,1,1,25.000000
2025-10-04 16:55:37.068,0.5900026940517346,0,0,0.8429894486226354,0.3119387330511849,0,0,0.2070672679426692,0.1467160422395884,0,0,0.5155680957144302,0.6612948020920587,0,0,0.1739863935116069,0.7337210551492226,0,0,0.5012628471523773,796.996336996337,809.8901098901099,423.8827838827839,790.952380952381,718.021978021978,-0.444824,0.207764,0.884338,5.824432,-4.329071,3.499146,2071868.131868,131518901.098901,29211648.351648,121.100647,1,1,1,1,1,25.000000
2025-10-04 16:55:37.068,0.5900026940517346,0,0,0.8429894486226354,0.3119387330511849,0,0,0.2070672679426692,0.1467160422395884,0,0,0.5155680957144302,0.6612948020920587,0,0,0.1739863935116069,0.7337210551492226,0,0,0.5012628471523773,794.1758241758242,785.7142857142858,387.2161172161173,801.025641025641,788.5347985347986,-0.444824,0.207764,0.884338,5.824432,-4.329071,3.499146,2071868.131868,131518901.098901,29211648.351648,121.100647,1,1,1,1,1,25.000000
2025-10-04 16:55:37.068,0.5900026940517346,0,0,0.8429894486226354,0.3119387330511849,0,0,0.2070672679426692,0.1467160422395884,0,0,0.5155680957144302,0.6612948020920587,0,0,0.1739863935116069,0.7337210551492226,0,0,0.5012628471523773,788.1318681318681,772.8205128205128,361.4285714285714,809.0842490842491,893.6996336996338,-0.444824,0.207764,0.884338,5.824432,-4.329071,3.499146,2071868.131868,131518901.098901,29211648.351648,121.100647,1,1,1,1,1,25.000000
2025-10-04 16:55:37.111,0.5900026940517346,0,0,0.8429894486226354,0.3119387330511849,0,0,0.2070672679426692,0.1467160422395884,0,0,0.5155680957144302,0.6612948020920587,0,0,0.1739863935116069,0.7337210551492226,0,0,0.5012628471523773,795.3846153846154,785.7142857142858,447.2527472527473,806.6666666666667,770,-0.436279,0.218994,0.884888,6.759033,-4.142151,5.360870,2071868.131868,131518901.098901,29211648.351648,121.100647,1,1,1,1,1,25.000000
2025-10-04 16:55:37.111,0.5900026940517346,0,0,0.8429894486226354,0.3119387330511849,0,0,0.2070672679426692,0.1467160422395884,0,0,0.5155680957144302,0.6612948020920587,0,0,0.1739863935116069,0.7337210551492226,0,0,0.5012628471523773,799.0109890109891,774.4322344322345,437.985347985348,819.1575091575091,695.0549450549451,-0.436279,0.218994,0.884888,6.759033,-4.142151,5.360870,2071868.131868,131518901.098901,29211648.351648,121.100647,1,1,1,1,1,25.000000
2025-10-04 16:55:37.111,0.5900026940517346,0,0,0.8429894486226354,0.3119387330511849,0,0,0.2070672679426692,0.1467160422395884,0,0,0.5155680957144302,0.6612948020920587,0,0,0.1739863935116069,0.7337210551492226,0,0,0.5012628471523773,776.8498168498169,761.941391941392,400.1098901098901,801.025641025641,769.1941391941392,-0.436279,0.218994,0.884888,6.759033,-4.142151,5.360870,2071868.131868,131518901.098901,29211648.351648,121.100647,1,1,1,1,1,25.000000
2025-10-04 16:55:37.112,0.5900026940517346,0,0,0.8429894486226354,0.3119387330511849,0,0,0.2070672679426692,0.1467160422395884,0,0,0.5155680957144302,0.6612948020920587,0,0,0.1739863935116069,0.7337210551492226,0,0,0.5012628471523773,783.2967032967033,768.3882783882784,405.3479853479853,775.2380952380953,799.0109890109891,-0.436279,0.218994,0.884888,6.759033,-4.142151,5.360870,2071868.131868,131518901.098901,29211648.351648,121.100647,1,1,1,1,1,25.000000
2025-10-04 16:55:37.112,0.5900026940517346,0,0,0.8429894486226354,0.3119387330511849,0,0,0.2070672679426692,0.1467160422395884,0,0,0.5155680957144302,0.6612948020920587,0,0,0.1739863935116069,0.7337210551492226,0,0,0.5012628471523773,798.2051282051282,764.7619047619048,403.3333333333334,789.3406593406594,787.3260073260074,-0.436279,0.218994,0.884888,6.759033,-4.142151,5.360870,2071868.131868,131518901.098901,29211648.351648,121.100647,1,1,1,1,1,25.000000
2025-10-04 16:55:37.112,0.5900026940517346,0,0,0.8429894486226354,0.3119387330511849,0,0,0.2070672679426692,0.1467160422395884,0,0,0.5155680957144302,0.6612948020920587,0,0,0.1739863935116069,0.7337210551492226,0,0,0.5012628471523773,777.2527472527473,764.3589743589744,378.3516483516484,804.6520146520147,779.6703296703297,-0.436279,0.218994,0.884888,6.759033,-4.142151,5.360870,2071868.131868,131518901.098901,29211648.351648,121.100647,1,1,1,1,1,25.000000
2025-10-04 16:55:37.112,0.5900026940517346,0,0,0.8429894486226354,0.3119387330511849,0,0,0.2070672679426692,0.1467160422395884,0,0,0.5155680957144302,0.6612948020920587,0,0,0.1739863935116069,0.7337210551492226,0,0,0.5012628471523773,783.6996336996338,753.8827838827839,319.9267399267399,817.1428571428571,917.0695970695971,-0.436279,0.218994,0.884888,6.759033,-4.142151,5.360870,2071868.131868,131518901.098901,29211648.351648,121.100647,1,1,1,1,1,25.000000
2025-10-04 16:55:37.112,0.5900026940517346,0,0,0.8429894486226354,0.3119387330511849,0,0,0.2070672679426692,0.1467160422395884,0,0,0.5155680957144302,0.6612948020920587,0,0,0.1739863935116069,0.7337210551492226,0,0,0.5012628471523773,790.5494505494506,736.5567765567765,182.5274725274725,818.3516483516484,1162.857142857143,-0.436279,0.218994,0.884888,6.759033,-4.142151,5.360870,2071868.131868,131518901.098901,29211648.351648,121.100647,1,1,1,1,1,25.000000
2025-10-04 16:55:37.113,0.5900026940517346,0,0,0.8429894486226354,0.3119387330511849,0,0,0.2070672679426692,0.1467160422395884,0,0,0.5155680957144302,0.6612948020920587,0,0,0.1739863935116069,0.7337210551492226,0,0,0.5012628471523773,795.7875457875458,786.9230769230769,349.7435897435898,822.3809523809524,1014.578754578755,-0.436279,0.218994,0.884888,6.759033,-4.142151,5.360870,2071868.131868,131518901.098901,29211648.351648,121.100647,1,1,1,1,1,25.000000
2025-10-04 16:55:37.113,0.5900026940517346,0,0,0.8429894486226354,0.3119387330511849,0,0,0.2070672679426692,0.1467160422395884,0,0,0.5155680957144302,0.6612948020920587,0,0,0.1739863935116069,0.7337210551492226,0,0,0.5012628471523773,800.2197802197802,800.6227106227107,491.5750915750916,832.0512820512821,744.6153846153846,-0.436279,0.218994,0.884888,6.759033,-4.142151,5.360870,2071868.131868,131518901.098901,29211648.351648,121.100647,1,1,1,1,1,25.000000
2025-10-04 16:55:37.113,0.5900026940517346,0,0,0.8429894486226354,0.3119387330511849,0,0,0.2070672679426692,0.1467160422395884,0,0,0.5155680957144302,0.6612948020920587,0,0,0.1739863935116069,0.7337210551492226,0,0,0.5012628471523773,798.6080586080586,774.8351648351648,393.2600732600733,813.919413919414,733.3333333333334,-0.436279,0.218994,0.884888,6.759033,-4.142151,5.360870,2071868.131868,131518901.098901,29211648.351648,121.100647,1,1,1,1,1,25.000000
2025-10-04 16:55:37.113,0.5900026940517346,0,0,0.8429894486226354,0.3119387330511849,0,0,0.2070672679426692,0.1467160422395884,0,0,0.5155680957144302,0.6612948020920587,0,0,0.1739863935116069,0.7337210551492226,0,0,0.5012628471523773,801.025641025641,776.4468864468864,377.1428571428572,811.9047619047619,745.0183150183151,-0.436279,0.218994,0.884888,6.759033,-4.142151,5.360870,2071868.131868,131518901.098901,29211648.351648,121.100647,1,1,1,1,1,25.000000
2025-10-04 16:55:37.157,0.5900026940517346,0,0,0.8429894486226354,0.3119387330511849,0,0,0.2070672679426692,0.1467160422395884,0,0,0.5155680957144302,0.6612948020920587,0,0,0.1739863935116069,0.7337210551492226,0,0,0.5012628471523773,804.6520146520147,786.9230769230769,423.4798534798535,815.5311355311355,693.4432234432235,-0.442932,0.221130,0.894104,6.437531,-4.396362,7.073059,2089597.069597,131597875.457875,29256776.556777,121.100647,1,1,1,1,1,25.000000
2025-10-04 16:55:37.157,0.5900026940517346,0,0,0.8429894486226354,0.3119387330511849,0,0,0.2070672679426692,0.1467160422395884,0,0,0.5155680957144302,0.6612948020920587,0,0,0.1739863935116069,0.7337210551492226,0,0,0.5012628471523773,805.4578754578755,784.1025641025641,448.8644688644689,803.040293040293,689.4139194139194,-0.442932,0.221130,0.894104,6.437531,-4.396362,7.073059,2089597.069597,131597875.457875,29256776.556777,121.100647,1,1,1,1,1,25.000000
2025-10-04 16:55:37.157,0.5900026940517346,0,0,0.8429894486226354,0.3119387330511849,0,0,0.2070672679426692,0.1467160422395884,0,0,0.5155680957144302,0.6612948020920587,0,0,0.1739863935116069,0.7337210551492226,0,0,0.5012628471523773,806.6666666666667,775.2380952380953,392.4542124542124,804.2490842490843,875.9706959706959,-0.442932,0.221130,0.894104,6.437531,-4.396362,7.073059,2089597.069597,131597875.457875,29256776.556777,121.100647,1,1,1,1,1,25.000000
2025-10-04 16:55:37.157,0.5900026940517346,0,0,0.8429894486226354,0.3119387330511849,0,0,0.2070672679426692,0.1467160422395884,0,0,0.5155680957144302,0.6612948020920587,0,0,0.1739863935116069,0.7337210551492226,0,0,0.5012628471523773,808.2783882783883,792.5641025641025,453.6996336996337,808.2783882783883,898.9377289377289,-0.442932,0.221130,0.894104,6.437531,-4.396362,7.073059,2089597.069597,131597875.457875,29256776.556777,121.100647,1,1,1,1,1,25.000000
2025-10-04 16:55:37.157,0.5900026940517346,0,0,0.8429894486226354,0.3119387330511849,0,0,0.2070672679426692,0.1467160422395884,0,0,0.5155680957144302,0.6612948020920587,0,0,0.1739863935116069,0.7337210551492226,0,0,0.5012628471523773,815.934065934066,786.1172161172161,448.4615384615385,809.0842490842491,753.8827838827839,-0.442932,0.221130,0.894104,6.437531,-4.396362,7.073059,2089597.069597,131597875.457875,29256776.556777,121.100647,1,1,1,1,1,25.000000
2025-10-04 16:55:37.158,0.5900026940517346,0,0,0.8429894486226354,0.3119387330511849,0,0,0.2070672679426692,0.1467160422395884,0,0,0.5155680957144302,0.6612948020920587,0,0,0.1739863935116069,0.7337210551492226,0,0,0.5012628471523773,806.2637362637363,776.0439560439561,396.8864468864469,798.6080586080586,855.8241758241759,-0.442932,0.221130,0.894104,6.437531,-4.396362,7.073059,2089597.069597,131597875.457875,29256776.556777,121.100647,1,1,1,1,1,25.000000
2025-10-04 16:55:37.158,0.5900026940517346,0,0,0.8429894486226354,0.3119387330511849,0,0,0.2070672679426692,0.1467160422395884,0,0,0.5155680957144302,0.6612948020920587,0,0,0.1739863935116069,0.7337210551492226,0,0,0.5012628471523773,794.981684981685,784.5054945054945,416.6300366300367,800.6227106227107,992.014652014652,-0.442932,0.221130,0.894104,6.437531,-4.396362,7.073059,2089597.069597,131597875.457875,29256776.556777,121.100647,1,1,1,1,1,25.000000
2025-10-04 16:55:37.158,0.5900026940517346,0,0,0.8429894486226354,0.3119387330511849,0,0,0.2070672679426692,0.1467160422395884,0,0,0.5155680957144302,0.6612948020920587,0,0,0.1739863935116069,0.7337210551492226,0,0,0.5012628471523773,811.9047619047619,802.6373626373627,456.923076923077,807.0695970695971,880,-0.442932,0.221130,0.894104,6.437531,-4.396362,7.073059,2089597.069597,131597875.457875,29256776.556777,121.100647,1,1,1,1,1,25.000000
2025-10-04 16:55:37.158,0.5900026940517346,0,0,0.8429894486226354,0.3119387330511849,0,0,0.2070672679426692,0.1467160422395884,0,0,0.5155680957144302,0.6612948020920587,0,0,0.1739863935116069,0.7337210551492226,0,0,0.5012628471523773,806.6666666666667,803.4432234432235,467.8021978021978,799.4139194139194,766.3736263736264,-0.442932,0.221130,0.894104,6.437531,-4.396362,7.073059,2089597.069597,131597875.457875,29256776.556777,121.100647,1,1,1,1,1,25.000000
2025-10-04 16:55:37.158,0.5900026940517346,0,0,0.8429894486226354,0.3119387330511849,0,0,0.2070672679426692,0.1467160422395884,0,0,0.5155680957144302,0.6612948020920587,0,0,0.1739863935116069,0.7337210551492226,0,0,0.5012628471523773,803.040293040293,774.0293040293041,377.948717948718,803.8461538461539,713.5897435897436,-0.442932,0.221130,0.894104,6.437531,-4.396362,7.073059,2089597.069597,131597875.457875,29256776.556777,121.100647,1,1,1,1,1,25.000000
2025-10-04 16:55:37.159,0.5900026940517346,0,0,0.8429894486226354,0.3119387330511849,0,0,0.2070672679426692,0.1467160422395884,0,0,0.5155680957144302,0.6612948020920587,0,0,0.1739863935116069,0.7337210551492226,0,0,0.5012628471523773,812.7106227106227,759.92673992674,282.051282051282,817.1428571428571,882.4175824175825,-0.442932,0.221130,0.894104,6.437531,-4.396362,7.073059,2089597.069597,131597875.457875,29256776.556777,121.100647,1,1,1,1,1,25.000000
2025-10-04 16:55:37.159,0.5900026940517346,0,0,0.8429894486226354,0.3119387330511849,0,0,0.2070672679426692,0.1467160422395884,0,0,0.5155680957144302,0.6612948020920587,0,0,0.1739863935116069,0.7337210551492226,0,0,0.5012628471523773,807.4725274725275,805.4578754578755,404.1391941391942,833.2600732600733,859.4505494505495,-0.442932,0.221130,0.894104,6.437531,-4.396362,7.073059,2089597.069597,131597875.457875,29256776.556777,121.100647,1,1,1,1,1,25.000000
2025-10-04 16:55:37.223,0.5900026940517346,0,0,0.8429894486226354,0.3119387330511849,0,0,0.2070672679426692,0.1467160422395884,0,0,0.5155680957144302,0.6612948020920587,0,0,0.1739863935116069,0.7337210551492226,0,0,0.5012628471523773,795.7875457875458,812.7106227106227,470.2197802197803,819.96336996337,653.956043956044,-0.435364,0.221558,0.894104,5.330963,-4.336548,9.286194,2089597.069597,131597875.457875,29256776.556777,121.100647,1,1,1,1,1,25.000000
2025-10-04 16:55:37.223,0.5900026940517346,0,0,0.8429894486226354,0.3119387330511849,0,0,0.2070672679426692,0.1467160422395884,0,0,0.5155680957144302,0.6612948020920587,0,0,0.1739863935116069,0.7337210551492226,0,0,0.5012628471523773,789.7435897435897,779.6703296703297,373.5164835164835,802.2344322344322,675.3113553113553,-0.435364,0.221558,0.894104,5.330963,-4.336548,9.286194,2089597.069597,131597875.457875,29256776.556777,121.100647,1,1,1,1,1,25.000000
2025-10-04 16:55:37.223,0.5900026940517346,0,0,0.8429894486226354,0.3119387330511849,0,0,0.2070672679426692,0.1467160422395884,0,0,0.5155680957144302,0.6612948020920587,0,0,0.1739863935116069,0.7337210551492226,0,0,0.5012628471523773,788.1318681318681,782.0879120879121,335.2380952380952,797.8021978021978,731.3186813186813,-0.435364,0.221558,0.894104,5.330963,-4.336548,9.286194,2089597.069597,131597875.457875,29256776.556777,121.100647,1,1,1,1,1,25.000000
2025-10-04 16:55:37.223,0.5900026940517346,0,0,0.8429894486226354,0.3119387330511849,0,0,0.2070672679426692,0.1467160422395884,0,0,0.5155680957144302,0.6612948020920587,0,0,0.1739863935116069,0.7337210551492226,0,0,0.5012628471523773,799.8168498168499,812.7106227106227,440.4029304029304,796.996336996337,750.6593406593407,-0.435364,0.221558,0.894104,5.330963,-4.336548,9.286194,2089597.069597,131597875.457875,29256776.556777,121.100647,1,1,1,1,1,25.000000
2025-10-04 16:55:37.224,0.5900026940517346,0,0,0.8429894486226354,0.3119387330511849,0,0,0.2070672679426692,0.1467160422395884,0,0,0.5155680957144302,0.6612948020920587,0,0,0.1739863935116069,0.7337210551492226,0,0,0.5012628471523773,809.8901098901099,802.6373626373627,419.4505494505495,802.6373626373627,726.0805860805862,-0.435364,0.221558,0.894104,5.330963,-4.336548,9.286194,2089597.069597,131597875.457875,29256776.556777,121.100647,1,1,1,1,1,25.000000
2025-10-04 16:55:37.224,0.5900026940517346,0,0,0.8429894486226354,0.3119387330511849,0,0,0.2070672679426692,0.1467160422395884,0,0,0.5155680957144302,0.6612948020920587,0,0,0.1739863935116069,0.7337210551492226,0,0,0.5012628471523773,800.2197802197802,770,301.7948717948718,802.6373626373627,923.5164835164835,-0.435364,0.221558,0.894104,5.330963,-4.336548,9.286194,2089597.069597,131597875.457875,29256776.556777,121.100647,1,1,1,1,1,25.000000
2025-10-04 16:55:37.224,0.5900026940517346,0,0,0.8429894486226354,0.3119387330511849,0,0,0.2070672679426692,0.1467160422395884,0,0,0.5155680957144302,0.6612948020920587,0,0,0.1739863935116069,0.7337210551492226,0,0,0.5012628471523773,801.8315018315019,781.6849816849817,267.5457875457876,810.6959706959707,1048.021978021978,-0.435364,0.221558,0.894104,5.330963,-4.336548,9.286194,2089597.069597,131597875.457875,29256776.556777,121.100647,1,1,1,1,1,25.000000
2025-10-04 16:55:37.224,0.5900026940517346,0,0,0.8429894486226354,0.3119387330511849,0,0,0.2070672679426692,0.1467160422395884,0,0,0.5155680957144302,0.6612948020920587,0,0,0.1739863935116069,0.7337210551492226,0,0,0.5012628471523773,812.7106227106227,828.4249084249085,407.7655677655678,815.934065934066,821.1721611721612,-0.435364,0.221558,0.894104,5.330963,-4.336548,9.286194,2089597.069597,131597875.457875,29256776.556777,121.100647,1,1,1,1,1,25.000000
2025-10-04 16:55:37.224,0.5900026940517346,0,0,0.8429894486226354,0.3119387330511849,0,0,0.2070672679426692,0.1467160422395884,0,0,0.5155680957144302,0.6612948020920587,0,0,0.1739863935116069,0.7337210551492226,0,0,0.5012628471523773,809.8901098901099,819.96336996337,477.4725274725275,818.7545787545788,674.1025641025641,-0.435364,0.221558,0.894104,5.330963,-4.336548,9.286194,2089597.069597,131597875.457875,29256776.556777,121.100647,1,1,1,1,1,25.000000
