TimeStamp,Delta_TP9,Delta_AF7,Delta_AF8,Delta_TP10,Theta_TP9,Theta_AF7,Theta_AF8,Theta_TP10,Alpha_TP9,Alpha_AF7,Alpha_AF8,Alpha_TP10,Beta_TP9,Beta_AF7,Beta_AF8,Beta_TP10,Gamma_TP9,Gamma_AF7,Gamma_AF8,Gamma_TP10,RAW_TP9,RAW_AF7,RAW_AF8,RAW_TP10,AUX_RIGHT,AUX_LEFT,Accelerometer_X,Accelerometer_Y,Accelerometer_Z,Gyro_X,Gyro_Y,Gyro_Z,PPG_Ambient,PPG_IR,PPG_Red,Heart_Rate,HeadBandOn,HSI_TP9,HSI_AF7,HSI_AF8,HSI_TP10,Battery,Elements
2025-09-24 16:04:09.954,,,,,,,,,,,,,,,,,,,,,,,,,,,,,,,,,,,,,,,,,,,/muse/event/connected MuseS-9CF6
2025-09-24 16:04:10.024,0.9929448243718288,0,0.2309353768819221,0.5630849281554859,1.149636186718294,0,0.09852709975013835,0.4434410833222356,1.037678810476441,0,0.6574237063289832,0.5955391474958731,0.6490365154130382,0,1.253155114508514,0.8471047949373898,0.6630320829978945,0,1.075544262844539,0.610310981837117,800.6227106227107,794.5787545787546,793.3699633699634,790.5494505494506,827.6190476190476,625.3479853479854,-0.464294,0.008301,0.874695,0.418701,-1.121521,0.680389,422502344.322344,322991428.571429,2474798.534799,82.142456,1,1,1,1,1,94.000000
2025-09-24 16:04:10.024,0.9929448243718288,0,0.2309353768819221,0.5630849281554859,1.149636186718294,0,0.09852709975013835,0.4434410833222356,1.037678810476441,0,0.6574237063289832,0.5955391474958731,0.6490365154130382,0,1.253155114508514,0.8471047949373898,0.6630320829978945,0,1.075544262844539,0.610310981837117,776.0439560439561,807.8754578754579,813.5164835164835,792.5641025641025,804.2490842490843,600.3663003663004,-0.464294,0.008301,0.874695,0.418701,-1.121521,0.680389,422502344.322344,322991428.571429,2474798.534799,82.142456,1,1,1,1,1,94.000000
2025-09-24 16:04:10.024,0.9929448243718288,0,0.2309353768819221,0.5630849281554859,1.149636186718294,0,0.09852709975013835,0.4434410833222356,1.037678810476441,0,0.6574237063289832,0.5955391474958731,0.6490365154130382,0,1.253155114508514,0.8471047949373898,0.6630320829978945,0,1.075544262844539,0.610310981837117,765.5677655677656,848.974358974359,814.3223443223443,775.6410256410256,832.0512820512821,735.7509157509157,-0.464294,0.008301,0.874695,0.418701,-1.121521,0.680389,422502344.322344,322991428.571429,2474798.534799,82.142456,1,1,1,1,1,94.000000
2025-09-24 16:04:10.024,0.9929448243718288,0,0.2309353768819221,0.5630849281554859,1.149636186718294,0,0.09852709975013835,0.4434410833222356,1.037678810476441,0,0.6574237063289832,0.5955391474958731,0.6490365154130382,0,1.253155114508514,0.8471047949373898,0.6630320829978945,0,1.075544262844539,0.610310981837117,783.6996336996338,835.2747252747253,803.4432234432235,780.0732600732601,867.9120879120879,778.0586080586081,-0.464294,0.008301,0.874695,0.418701,-1.121521,0.680389,422502344.322344,322991428.571429,2474798.534799,82.142456,1,1,1,1,1,94.000000
2025-09-24 16:04:10.025,0.9929448243718288,0,0.2309353768819221,0.5630849281554859,1.149636186718294,0,0.09852709975013835,0.4434410833222356,1.037678810476441,0,0.6574237063289832,0.5955391474958731,0.6490365154130382,0,1.253155114508514,0.8471047949373898,0.6630320829978945,0,1.075544262844539,0.610310981837117,781.6849816849817,803.4432234432235,808.2783882783883,786.1172161172161,837.6923076923077,680.952380952381,-0.464294,0.008301,0.874695,0.418701,-1.121521,0.680389,422502344.322344,322991428.571429,2474798.534799,82.142456,1,1,1,1,1,94.000000
2025-09-24 16:04:10.025,0.9929448243718288,0,0.2309353768819221,0.5630849281554859,1.149636186718294,0,0.09852709975013835,0.4434410833222356,1.037678810476441,0,0.6574237063289832,0.5955391474958731,0.6490365154130382,0,1.253155114508514,0.8471047949373898,0.6630320829978945,0,1.075544262844539,0.610310981837117,763.1501831501831,877.5824175824176,819.5604395604396,790.1465201465202,793.7728937728938,909.4139194139194,-0.464294,0.008301,0.874695,0.418701,-1.121521,0.680389,422502344.322344,322991428.571429,2474798.534799,82.142456,1,1,1,1,1,94.000000
2025-09-24 16:04:10.025,0.9929448243718288,0,0.2309353768819221,0.5630849281554859,1.149636186718294,0,0.09852709975013835,0.4434410833222356,1.037678810476441,0,0.6574237063289832,0.5955391474958731,0.6490365154130382,0,1.253155114508514,0.8471047949373898,0.6630320829978945,0,1.075544262844539,0.610310981837117,759.1208791208792,844.1391941391942,821.978021978022,797.3992673992674,773.6263736263736,1216.043956043956,-0.464294,0.008301,0.874695,0.418701,-1.121521,0.680389,422502344.322344,322991428.571429,2474798.534799,82.142456,1,1,1,1,1,94.000000
2025-09-24 16:04:10.025,0.9929448243718288,0,0.2309353768819221,0.5630849281554859,1.149636186718294,0,0.09852709975013835,0.4434410833222356,1.037678810476441,0,0.6574237063289832,0.5955391474958731,0.6490365154130382,0,1.253155114508514,0.8471047949373898,0.6630320829978945,0,1.075544262844539,0.610310981837117,780.0732600732601,719.2307692307693,815.934065934066,798.2051282051282,790.1465201465202,909.0109890109891,-0.464294,0.008301,0.874695,0.418701,-1.121521,0.680389,422502344.322344,322991428.571429,2474798.534799,82.142456,1,1,1,1,1,94.000000
2025-09-24 16:04:10.025,0.9929448243718288,0,0.2309353768819221,0.5630849281554859,1.149636186718294,0,0.09852709975013835,0.4434410833222356,1.037678810476441,0,0.6574237063289832,0.5955391474958731,0.6490365154130382,0,1.253155114508514,0.8471047949373898,0.6630320829978945,0,1.075544262844539,0.610310981837117,779.6703296703297,802.6373626373627,808.6813186813187,791.3553113553114,817.5457875457876,733.3333333333334,-0.464294,0.008301,0.874695,0.418701,-1.121521,0.680389,422502344.322344,322991428.571429,2474798.534799,82.142456,1,1,1,1,1,94.000000
2025-09-24 16:04:10.025,0.9929448243718288,0,0.2309353768819221,0.5630849281554859,1.149636186718294,0,0.09852709975013835,0.4434410833222356,1.037678810476441,0,0.6574237063289832,0.5955391474958731,0.6490365154130382,0,1.253155114508514,0.8471047949373898,0.6630320829978945,0,1.075544262844539,0.610310981837117,768.3882783882784,864.6886446886447,802.6373626373627,785.3113553113553,847.3626373626374,1029.487179487179,-0.464294,0.008301,0.874695,0.418701,-1.121521,0.680389,422502344.322344,322991428.571429,2474798.534799,82.142456,1,1,1,1,1,94.000000
2025-09-24 16:04:10.025,0.9929448243718288,0,0.2309353768819221,0.5630849281554859,1.149636186718294,0,0.09852709975013835,0.4434410833222356,1.037678810476441,0,0.6574237063289832,0.5955391474958731,0.6490365154130382,0,1.253155114508514,0.8471047949373898,0.6630320829978945,0,1.075544262844539,0.610310981837117,770.4029304029305,776.8498168498169,800.2197802197802,793.3699633699634,865.8974358974359,935.2014652014652,-0.464294,0.008301,0.874695,0.418701,-1.121521,0.680389,422502344.322344,322991428.571429,2474798.534799,82.142456,1,1,1,1,1,94.000000
2025-09-24 16:04:10.025,0.9929448243718288,0,0.2309353768819221,0.5630849281554859,1.149636186718294,0,0.09852709975013835,0.4434410833222356,1.037678810476441,0,0.6574237063289832,0.5955391474958731,0.6490365154130382,0,1.253155114508514,0.8471047949373898,0.6630320829978945,0,1.075544262844539,0.610310981837117,787.7289377289378,809.0842490842491,806.2637362637363,794.5787545787546,827.2161172161173,851.7948717948718,-0.464294,0.008301,0.874695,0.418701,-1.121521,0.680389,422502344.322344,322991428.571429,2474798.534799,82.142456,1,1,1,1,1,94.000000
2025-09-24 16:04:10.026,0.9929448243718288,0,0.2309353768819221,0.5630849281554859,1.149636186718294,0,0.09852709975013835,0.4434410833222356,1.037678810476441,0,0.6574237063289832,0.5955391474958731,0.6490365154130382,0,1.253155114508514,0.8471047949373898,0.6630320829978945,0,1.075544262844539,0.610310981837117,791.3553113553114,780.0732600732601,804.2490842490843,781.2820512820513,793.3699633699634,782.4908424908425,-0.460632,0.013184,0.869080,-0.007477,-0.889740,0.732727,422502344.322344,322991428.571429,2474798.534799,82.142456,1,1,1,1,1,94.000000
2025-09-24 16:04:10.026,0.9929448243718288,0,0.2309353768819221,0.5630849281554859,1.149636186718294,0,0.09852709975013835,0.4434410833222356,1.037678810476441,0,0.6574237063289832,0.5955391474958731,0.6490365154130382,0,1.253155114508514,0.8471047949373898,0.6630320829978945,0,1.075544262844539,0.610310981837117,790.1465201465202,787.7289377289378,802.2344322344322,772.014652014652,821.1721611721612,673.6996336996338,-0.460632,0.013184,0.869080,-0.007477,-0.889740,0.732727,422502344.322344,322991428.571429,2474798.534799,82.142456,1,1,1,1,1,94.000000
2025-09-24 16:04:10.026,0.9929448243718288,0,0.2309353768819221,0.5630849281554859,1.149636186718294,0,0.09852709975013835,0.4434410833222356,1.037678810476441,0,0.6574237063289832,0.5955391474958731,0.6490365154130382,0,1.253155114508514,0.8471047949373898,0.6630320829978945,0,1.075544262844539,0.610310981837117,758.3150183150184,805.8608058608058,798.6080586080586,764.3589743589744,822.3809523809524,678.5347985347986,-0.460632,0.013184,0.869080,-0.007477,-0.889740,0.732727,422502344.322344,322991428.571429,2474798.534799,82.142456,1,1,1,1,1,94.000000
2025-09-24 16:04:10.026,0.9929448243718288,0,0.2309353768819221,0.5630849281554859,1.149636186718294,0,0.09852709975013835,0.4434410833222356,1.037678810476441,0,0.6574237063289832,0.5955391474958731,0.6490365154130382,0,1.253155114508514,0.8471047949373898,0.6630320829978945,0,1.075544262844539,0.610310981837117,733.3333333333334,784.1025641025641,795.7875457875458,761.941391941392,760.7326007326008,617.2893772893773,-0.460632,0.013184,0.869080,-0.007477,-0.889740,0.732727,422502344.322344,322991428.571429,2474798.534799,82.142456,1,1,1,1,1,94.000000
2025-09-24 16:04:10.026,0.9929448243718288,0,0.2309353768819221,0.5630849281554859,1.149636186718294,0,0.09852709975013835,0.4434410833222356,1.037678810476441,0,0.6574237063289832,0.5955391474958731,0.6490365154130382,0,1.253155114508514,0.8471047949373898,0.6630320829978945,0,1.075544262844539,0.610310981837117,764.3589743589744,824.7985347985348,796.1904761904763,770.4029304029305,806.2637362637363,589.4871794871796,-0.460632,0.013184,0.869080,-0.007477,-0.889740,0.732727,422502344.322344,322991428.571429,2474798.534799,82.142456,1,1,1,1,1,94.000000
2025-09-24 16:04:10.026,0.9929448243718288,0,0.2309353768819221,0.5630849281554859,1.149636186718294,0,0.09852709975013835,0.4434410833222356,1.037678810476441,0,0.6574237063289832,0.5955391474958731,0.6490365154130382,0,1.253155114508514,0.8471047949373898,0.6630320829978945,0,1.075544262844539,0.610310981837117,772.014652014652,879.5970695970697,796.5934065934066,770.8058608058608,859.047619047619,906.1904761904763,-0.460632,0.013184,0.869080,-0.007477,-0.889740,0.732727,422502344.322344,322991428.571429,2474798.534799,82.142456,1,1,1,1,1,94.000000
2025-09-24 16:04:10.026,0.9929448243718288,0,0.2309353768819221,0.5630849281554859,1.149636186718294,0,0.09852709975013835,0.4434410833222356,1.037678810476441,0,0.6574237063289832,0.5955391474958731,0.6490365154130382,0,1.253155114508514,0.8471047949373898,0.6630320829978945,0,1.075544262844539,0.610310981837117,757.9120879120879,804.2490842490843,796.5934065934066,761.941391941392,805.4578754578755,1141.501831501831,-0.460632,0.013184,0.869080,-0.007477,-0.889740,0.732727,422502344.322344,322991428.571429,2474798.534799,82.142456,1,1,1,1,1,94.000000
2025-09-24 16:04:10.026,0.9929448243718288,0,0.2403119249931516,0.5630849281554859,1.149636186718294,0,0.07730575539142599,0.4434410833222356,1.037678810476441,0,0.678320801470388,0.5955391474958731,0.6490365154130382,0,1.239068942062291,0.8471047949373898,0.6630320829978945,0,1.07027856332522,0.610310981837117,760.7326007326008,730.5128205128206,799.4139194139194,762.3443223443223,765.5677655677656,833.6630036630037,-0.460632,0.013184,0.869080,-0.007477,-0.889740,0.732727,422502344.322344,322991428.571429,2474798.534799,82.142456,1,1,1,1,1,94.000000
2025-09-24 16:04:10.027,0.9929448243718288,0,0.2403119249931516,0.5630849281554859,1.149636186718294,0,0.07730575539142599,0.4434410833222356,1.037678810476441,0,0.678320801470388,0.5955391474958731,0.6490365154130382,0,1.239068942062291,0.8471047949373898,0.6630320829978945,0,1.07027856332522,0.610310981837117,774.4322344322345,770,807.0695970695971,770.4029304029305,814.3223443223443,543.5531135531136,-0.460632,0.013184,0.869080,-0.007477,-0.889740,0.732727,422502344.322344,322991428.571429,2474798.534799,82.142456,1,1,1,1,1,94.000000
2025-09-24 16:04:10.027,0.9929448243718288,0,0.2403119249931516,0.5630849281554859,1.149636186718294,0,0.07730575539142599,0.4434410833222356,1.037678810476441,0,0.678320801470388,0.5955391474958731,0.6490365154130382,0,1.239068942062291,0.8471047949373898,0.6630320829978945,0,1.07027856332522,0.610310981837117,784.5054945054945,812.7106227106227,810.2930402930403,761.1355311355312,830.8424908424909,564.1025641025641,-0.460632,0.013184,0.869080,-0.007477,-0.889740,0.732727,422502344.322344,322991428.571429,2474798.534799,82.142456,1,1,1,1,1,94.000000
2025-09-24 16:04:10.027,0.9929448243718288,0,0.2403119249931516,0.5630849281554859,1.149636186718294,0,0.07730575539142599,0.4434410833222356,1.037678810476441,0,0.678320801470388,0.5955391474958731,0.6490365154130382,0,1.239068942062291,0.8471047949373898,0.6630320829978945,0,1.07027856332522,0.610310981837117,772.014652014652,816.3369963369963,803.4432234432235,760.7326007326008,764.3589743589744,634.2124542124542,-0.460632,0.013184,0.869080,-0.007477,-0.889740,0.732727,422502344.322344,322991428.571429,2474798.534799,82.142456,1,1,1,1,1,94.000000
2025-09-24 16:04:10.027,0.9929448243718288,0,0.2403119249931516,0.5630849281554859,1.149636186718294,0,0.07730575539142599,0.4434410833222356,1.037678810476441,0,0.678320801470388,0.5955391474958731,0.6490365154130382,0,1.239068942062291,0.8471047949373898,0.6630320829978945,0,1.07027856332522,0.610310981837117,768.3882783882784,822.7838827838829,805.8608058608058,765.5677655677656,823.992673992674,703.5164835164835,-0.460632,0.013184,0.869080,-0.007477,-0.889740,0.732727,422502344.322344,322991428.571429,2474798.534799,82.142456,1,1,1,1,1,94.000000
2025-09-24 16:04:10.028,0.9929448243718288,0,0.2403119249931516,0.5630849281554859,1.149636186718294,0,0.07730575539142599,0.4434410833222356,1.037678810476441,0,0.678320801470388,0.5955391474958731,0.6490365154130382,0,1.239068942062291,0.8471047949373898,0.6630320829978945,0,1.07027856332522,0.610310981837117,776.0439560439561,791.3553113553114,809.0842490842491,775.2380952380953,848.974358974359,634.2124542124542,-0.460632,0.013184,0.869080,-0.007477,-0.889740,0.732727,422502344.322344,323945567.765568,2505421.245421,82.142456,1,1,1,1,1,94.000000
2025-09-24 16:04:10.028,0.9929448243718288,0,0.2403119249931516,0.5630849281554859,1.149636186718294,0,0.07730575539142599,0.4434410833222356,1.037678810476441,0,0.678320801470388,0.5955391474958731,0.6490365154130382,0,1.239068942062291,0.8471047949373898,0.6630320829978945,0,1.07027856332522,0.610310981837117,778.4615384615385,815.5311355311355,808.2783882783883,775.6410256410256,847.7655677655678,599.1575091575091,-0.460632,0.013184,0.869080,-0.007477,-0.889740,0.732727,422502344.322344,323945567.765568,2505421.245421,82.142456,1,1,1,1,1,94.000000
2025-09-24 16:04:10.028,0.9929448243718288,0,0.2403119249931516,0.5630849281554859,1.149636186718294,0,0.07730575539142599,0.4434410833222356,1.037678810476441,0,0.678320801470388,0.5955391474958731,0.6490365154130382,0,1.239068942062291,0.8471047949373898,0.6630320829978945,0,1.07027856332522,0.610310981837117,779.6703296703297,852.6007326007326,808.6813186813187,771.2087912087912,812.7106227106227,848.974358974359,-0.460632,0.013184,0.869080,-0.007477,-0.889740,0.732727,422502344.322344,323945567.765568,2505421.245421,82.142456,1,1,1,1,1,94.000000
2025-09-24 16:04:10.028,0.9929448243718288,0,0.2403119249931516,0.5630849281554859,1.149636186718294,0,0.07730575539142599,0.4434410833222356,1.037678810476441,0,0.678320801470388,0.5955391474958731,0.6490365154130382,0,1.239068942062291,0.8471047949373898,0.6630320829978945,0,1.07027856332522,0.610310981837117,778.4615384615385,786.9230769230769,808.2783882783883,792.5641025641025,784.1025641025641,826.8131868131868,-0.460632,0.013184,0.869080,-0.007477,-0.889740,0.732727,422502344.322344,323945567.765568,2505421.245421,82.142456,1,1,1,1,1,94.000000
2025-09-24 16:04:10.028,0.9929448243718288,0,0.2403119249931516,0.5630849281554859,1.149636186718294,0,0.07730575539142599,0.4434410833222356,1.037678810476441,0,0.678320801470388,0.5955391474958731,0.6490365154130382,0,1.239068942062291,0.8471047949373898,0.6630320829978945,0,1.07027856332522,0.610310981837117,787.7289377289378,805.8608058608058,811.0989010989011,792.1611721611722,823.5897435897436,696.2637362637363,-0.460632,0.013184,0.869080,-0.007477,-0.889740,0.732727,422502344.322344,323945567.765568,2505421.245421,82.142456,1,1,1,1,1,94.000000
2025-09-24 16:04:10.028,0.9929448243718288,0,0.2403119249931516,0.5630849281554859,1.149636186718294,0,0.07730575539142599,0.4434410833222356,1.037678810476441,0,0.678320801470388,0.5955391474958731,0.6490365154130382,0,1.239068942062291,0.8471047949373898,0.6630320829978945,0,1.07027856332522,0.610310981837117,794.1758241758242,893.2967032967033,811.5018315018315,797.8021978021978,831.2454212454213,1004.908424908425,-0.460632,0.013184,0.869080,-0.007477,-0.889740,0.732727,422502344.322344,323945567.765568,2505421.245421,82.142456,1,1,1,1,1,94.000000
2025-09-24 16:04:10.028,0.9929448243718288,0,0.2403119249931516,0.5630849281554859,1.149636186718294,0,0.07730575539142599,0.4434410833222356,1.037678810476441,0,0.678320801470388,0.5955391474958731,0.6490365154130382,0,1.239068942062291,0.8471047949373898,0.6630320829978945,0,1.07027856332522,0.610310981837117,795.3846153846154,787.7289377289378,811.5018315018315,810.6959706959707,795.3846153846154,1125.787545787546,-0.460632,0.013184,0.869080,-0.007477,-0.889740,0.732727,422502344.322344,323945567.765568,2505421.245421,82.142456,1,1,1,1,1,94.000000
2025-09-24 16:04:10.029,0.9929448243718288,0,0.2403119249931516,0.5630849281554859,1.149636186718294,0,0.07730575539142599,0.4434410833222356,1.037678810476441,0,0.678320801470388,0.5955391474958731,0.6490365154130382,0,1.239068942062291,0.8471047949373898,0.6630320829978945,0,1.07027856332522,0.610310981837117,780.8791208791209,690.6227106227107,808.2783882783883,801.8315018315019,767.985347985348,761.941391941392,-0.460632,0.013184,0.869080,-0.007477,-0.889740,0.732727,422502344.322344,323945567.765568,2505421.245421,82.142456,1,1,1,1,1,94.000000
2025-09-24 16:04:10.029,0.9929448243718288,0,0.2403119249931516,0.5630849281554859,1.149636186718294,0,0.07730575539142599,0.4434410833222356,1.037678810476441,0,0.678320801470388,0.5955391474958731,0.6490365154130382,0,1.239068942062291,0.8471047949373898,0.6630320829978945,0,1.07027856332522,0.610310981837117,769.1941391941392,793.3699633699634,798.6080586080586,792.967032967033,814.7252747252747,604.7985347985348,-0.460632,0.013184,0.869080,-0.007477,-0.889740,0.732727,422502344.322344,323945567.765568,2505421.245421,82.142456,1,1,1,1,1,94.000000
2025-09-24 16:04:10.029,0.9929448243718288,0,0.2403119249931516,0.5630849281554859,1.149636186718294,0,0.07730575539142599,0.4434410833222356,1.037678810476441,0,0.678320801470388,0.5955391474958731,0.6490365154130382,0,1.239068942062291,0.8471047949373898,0.6630320829978945,0,1.07027856332522,0.610310981837117,768.3882783882784,866.7032967032967,794.981684981685,788.1318681318681,789.7435897435897,845.3479853479854,-0.460632,0.013184,0.869080,-0.007477,-0.889740,0.732727,422502344.322344,323945567.765568,2505421.245421,82.142456,1,1,1,1,1,94.000000
2025-09-24 16:04:10.029,0.9929448243718288,0,0.2403119249931516,0.5630849281554859,1.149636186718294,0,0.07730575539142599,0.4434410833222356,1.037678810476441,0,0.678320801470388,0.5955391474958731,0.6490365154130382,0,1.239068942062291,0.8471047949373898,0.6630320829978945,0,1.07027856332522,0.610310981837117,763.5531135531136,775.6410256410256,799.4139194139194,787.3260073260074,817.5457875457876,811.5018315018315,-0.460632,0.013184,0.869080,-0.007477,-0.889740,0.732727,422502344.322344,323945567.765568,2505421.245421,82.142456,1,1,1,1,1,94.000000
2025-09-24 16:04:10.029,0.9929448243718288,0,0.2403119249931516,0.5630849281554859,1.149636186718294,0,0.07730575539142599,0.4434410833222356,1.037678810476441,0,0.678320801470388,0.5955391474958731,0.6490365154130382,0,1.239068942062291,0.8471047949373898,0.6630320829978945,0,1.07027856332522,0.610310981837117,751.0622710622711,754.6886446886447,813.919413919414,798.6080586080586,865.8974358974359,697.8754578754579,-0.460632,0.013184,0.869080,-0.007477,-0.889740,0.732727,422502344.322344,323945567.765568,2505421.245421,82.142456,1,1,1,1,1,94.000000
2025-09-24 16:04:10.029,0.9929448243718288,0,0.2403119249931516,0.5630849281554859,1.149636186718294,0,0.07730575539142599,0.4434410833222356,1.037678810476441,0,0.678320801470388,0.5955391474958731,0.6490365154130382,0,1.239068942062291,0.8471047949373898,0.6630320829978945,0,1.07027856332522,0.610310981837117,750.6593406593407,749.4505494505495,813.5164835164835,779.2673992673992,830.8424908424909,609.2307692307693,-0.459351,0.012390,0.872192,-0.441132,-0.994415,0.037384,422502344.322344,323945567.765568,2505421.245421,82.142456,1,1,1,1,1,94.000000
2025-09-24 16:04:10.029,0.9929448243718288,0,0.2403119249931516,0.5630849281554859,1.149636186718294,0,0.07730575539142599,0.4434410833222356,1.037678810476441,0,0.678320801470388,0.5955391474958731,0.6490365154130382,0,1.239068942062291,0.8471047949373898,0.6630320829978945,0,1.07027856332522,0.610310981837117,755.0915750915751,788.9377289377289,815.1282051282052,763.5531135531136,811.5018315018315,579.8168498168499,-0.459351,0.012390,0.872192,-0.441132,-0.994415,0.037384,422502344.322344,323945567.765568,2505421.245421,82.142456,1,1,1,1,1,94.000000
2025-09-24 16:04:10.029,0.9929448243718288,0,0.2403119249931516,0.5630849281554859,1.149636186718294,0,0.07730575539142599,0.4434410833222356,1.037678810476441,0,0.678320801470388,0.5955391474958731,0.6490365154130382,0,1.239068942062291,0.8471047949373898,0.6630320829978945,0,1.07027856332522,0.610310981837117,749.4505494505495,859.047619047619,831.2454212454213,765.9706959706959,846.5567765567765,738.1684981684982,-0.459351,0.012390,0.872192,-0.441132,-0.994415,0.037384,422502344.322344,323945567.765568,2505421.245421,82.142456,1,1,1,1,1,94.000000
2025-09-24 16:04:10.029,0.9929448243718288,0,0.2403119249931516,0.5630849281554859,1.149636186718294,0,0.07730575539142599,0.4434410833222356,1.037678810476441,0,0.678320801470388,0.5955391474958731,0.6490365154130382,0,1.239068942062291,0.8471047949373898,0.6630320829978945,0,1.07027856332522,0.610310981837117,755.8974358974359,823.1868131868132,839.7069597069598,764.3589743589744,873.956043956044,737.7655677655678,-0.459351,0.012390,0.872192,-0.441132,-0.994415,0.037384,422502344.322344,323945567.765568,2505421.245421,82.142456,1,1,1,1,1,94.000000
2025-09-24 16:04:10.030,0.9929448243718288,0,0.2403119249931516,0.5630849281554859,1.149636186718294,0,0.07730575539142599,0.4434410833222356,1.037678810476441,0,0.678320801470388,0.5955391474958731,0.6490365154130382,0,1.239068942062291,0.8471047949373898,0.6630320829978945,0,1.07027856332522,0.610310981837117,749.047619047619,853.8095238095239,843.3333333333334,770.8058608058608,812.3076923076924,753.4798534798535,-0.459351,0.012390,0.872192,-0.441132,-0.994415,0.037384,422502344.322344,323945567.765568,2505421.245421,82.142456,1,1,1,1,1,94.000000
2025-09-24 16:04:10.030,0.9929448243718288,0,0.2403119249931516,0.5630849281554859,1.149636186718294,0,0.07730575539142599,0.4434410833222356,1.037678810476441,0,0.678320801470388,0.5955391474958731,0.6490365154130382,0,1.239068942062291,0.8471047949373898,0.6630320829978945,0,1.07027856332522,0.610310981837117,739.3772893772893,904.1758241758242,844.9450549450549,763.956043956044,832.8571428571429,1026.666666666667,-0.459351,0.012390,0.872192,-0.441132,-0.994415,0.037384,422502344.322344,323945567.765568,2505421.245421,82.142456,1,1,1,1,1,94.000000
2025-09-24 16:04:10.030,0.9929448243718288,0,0.2403119249931516,0.5630849281554859,1.149636186718294,0,0.07730575539142599,0.4434410833222356,1.037678810476441,0,0.678320801470388,0.5955391474958731,0.6490365154130382,0,1.239068942062291,0.8471047949373898,0.6630320829978945,0,1.07027856332522,0.610310981837117,754.2857142857143,840.9157509157509,841.3186813186813,761.941391941392,903.3699633699634,1203.150183150183,-0.459351,0.012390,0.872192,-0.441132,-0.994415,0.037384,422502344.322344,323945567.765568,2505421.245421,82.142456,1,1,1,1,1,94.000000
2025-09-24 16:04:10.030,0.9929448243718288,0,0.2403119249931516,0.5630849281554859,1.149636186718294,0,0.07730575539142599,0.4434410833222356,1.037678810476441,0,0.678320801470388,0.5955391474958731,0.6490365154130382,0,1.239068942062291,0.8471047949373898,0.6630320829978945,0,1.07027856332522,0.610310981837117,777.2527472527473,775.2380952380953,835.2747252747253,773.2234432234433,902.1611721611722,1173.736263736264,-0.459351,0.012390,0.872192,-0.441132,-0.994415,0.037384,422502344.322344,323945567.765568,2505421.245421,82.142456,1,1,1,1,1,94.000000
2025-09-24 16:04:10.030,0.9929448243718288,0,0.2403119249931516,0.5630849281554859,1.149636186718294,0,0.07730575539142599,0.4434410833222356,1.037678810476441,0,0.678320801470388,0.5955391474958731,0.6490365154130382,0,1.239068942062291,0.8471047949373898,0.6630320829978945,0,1.07027856332522,0.610310981837117,786.9230769230769,697.4725274725275,834.0659340659341,787.3260073260074,854.2124542124542,724.0659340659341,-0.459351,0.012390,0.872192,-0.441132,-0.994415,0.037384,422502344.322344,323945567.765568,2505421.245421,82.142456,1,1,1,1,1,94.000000
2025-09-24 16:04:10.030,0.9929448243718288,0,0.2496067819015572,0.5630849281554859,1.149636186718294,0,0.06351086091383476,0.4434410833222356,1.037678810476441,0,0.6852387818122778,0.5955391474958731,0.6490365154130382,0,1.224674614376081,0.8471047949373898,0.6630320829978945,0,1.066297944471033,0.610310981837117,790.952380952381,790.952380952381,828.021978021978,784.1025641025641,769.1941391941392,480.6959706959707,-0.459351,0.012390,0.872192,-0.441132,-0.994415,0.037384,422502344.322344,323945567.765568,2505421.245421,82.142456,1,1,1,1,1,94.000000
2025-09-24 16:04:10.030,0.9929448243718288,0,0.2496067819015572,0.5630849281554859,1.149636186718294,0,0.06351086091383476,0.4434410833222356,1.037678810476441,0,0.6852387818122778,0.5955391474958731,0.6490365154130382,0,1.224674614376081,0.8471047949373898,0.6630320829978945,0,1.066297944471033,0.610310981837117,790.952380952381,863.0769230769231,825.2014652014652,790.952380952381,817.948717948718,668.4615384615385,-0.459351,0.012390,0.872192,-0.441132,-0.994415,0.037384,422502344.322344,323945567.765568,2505421.245421,82.142456,1,1,1,1,1,94.000000
2025-09-24 16:04:10.031,0.9929448243718288,0,0.2496067819015572,0.5630849281554859,1.149636186718294,0,0.06351086091383476,0.4434410833222356,1.037678810476441,0,0.6852387818122778,0.5955391474958731,0.6490365154130382,0,1.224674614376081,0.8471047949373898,0.6630320829978945,0,1.066297944471033,0.610310981837117,790.5494505494506,853.4065934065934,830.4395604395604,807.4725274725275,916.6666666666667,780.8791208791209,-0.459351,0.012390,0.872192,-0.441132,-0.994415,0.037384,422502344.322344,323945567.765568,2505421.245421,82.142456,1,1,1,1,1,94.000000
2025-09-24 16:04:10.031,0.9929448243718288,0,0.2496067819015572,0.5630849281554859,1.149636186718294,0,0.06351086091383476,0.4434410833222356,1.037678810476441,0,0.6852387818122778,0.5955391474958731,0.6490365154130382,0,1.224674614376081,0.8471047949373898,0.6630320829978945,0,1.066297944471033,0.610310981837117,807.0695970695971,827.2161172161173,832.4542124542124,803.040293040293,917.8754578754579,793.7728937728938,-0.462708,0.013306,0.867920,0.037384,-1.024323,-0.717773,422502344.322344,325838534.798535,2515091.575092,82.142456,1,1,1,1,1,94.000000
2025-09-24 16:04:10.031,0.9929448243718288,0,0.2496067819015572,0.5630849281554859,1.149636186718294,0,0.06351086091383476,0.4434410833222356,1.037678810476441,0,0.6852387818122778,0.5955391474958731,0.6490365154130382,0,1.224674614376081,0.8471047949373898,0.6630320829978945,0,1.066297944471033,0.610310981837117,813.1135531135532,794.1758241758242,828.021978021978,792.967032967033,870.7326007326008,729.3040293040293,-0.462708,0.013306,0.867920,0.037384,-1.024323,-0.717773,422502344.322344,325838534.798535,2515091.575092,82.142456,1,1,1,1,1,94.000000
2025-09-24 16:04:10.031,0.9929448243718288,0,0.2496067819015572,0.5630849281554859,1.149636186718294,0,0.06351086091383476,0.4434410833222356,1.037678810476441,0,0.6852387818122778,0.5955391474958731,0.6490365154130382,0,1.224674614376081,0.8471047949373898,0.6630320829978945,0,1.066297944471033,0.610310981837117,790.952380952381,819.1575091575091,822.3809523809524,788.1318681318681,802.6373626373627,695.8608058608058,-0.462708,0.013306,0.867920,0.037384,-1.024323,-0.717773,422502344.322344,325838534.798535,2515091.575092,82.142456,1,1,1,1,1,94.000000
2025-09-24 16:04:10.031,0.9929448243718288,0,0.2496067819015572,0.5630849281554859,1.149636186718294,0,0.06351086091383476,0.4434410833222356,1.037678810476441,0,0.6852387818122778,0.5955391474958731,0.6490365154130382,0,1.224674614376081,0.8471047949373898,0.6630320829978945,0,1.066297944471033,0.610310981837117,762.7472527472528,818.7545787545788,821.5750915750916,788.5347985347986,751.4652014652015,667.6556776556777,-0.462708,0.013306,0.867920,0.037384,-1.024323,-0.717773,422502344.322344,325838534.798535,2515091.575092,82.142456,1,1,1,1,1,94.000000
2025-09-24 16:04:10.031,0.9929448243718288,0,0.2496067819015572,0.5630849281554859,1.149636186718294,0,0.06351086091383476,0.4434410833222356,1.037678810476441,0,0.6852387818122778,0.5955391474958731,0.6490365154130382,0,1.224674614376081,0.8471047949373898,0.6630320829978945,0,1.066297944471033,0.610310981837117,751.0622710622711,842.1245421245421,814.7252747252747,788.1318681318681,821.1721611721612,647.1062271062272,-0.462708,0.013306,0.867920,0.037384,-1.024323,-0.717773,422502344.322344,325838534.798535,2515091.575092,82.142456,1,1,1,1,1,94.000000
2025-09-24 16:04:10.032,0.9929448243718288,0,0.2496067819015572,0.5630849281554859,1.149636186718294,0,0.06351086091383476,0.4434410833222356,1.037678810476441,0,0.6852387818122778,0.5955391474958731,0.6490365154130382,0,1.224674614376081,0.8471047949373898,0.6630320829978945,0,1.066297944471033,0.610310981837117,759.5238095238095,884.8351648351648,809.4871794871796,796.1904761904763,809.0842490842491,889.2673992673992,-0.462708,0.013306,0.867920,0.037384,-1.024323,-0.717773,422502344.322344,325838534.798535,2515091.575092,82.142456,1,1,1,1,1,94.000000
2025-09-24 16:04:10.032,0.9929448243718288,0,0.2496067819015572,0.5630849281554859,1.149636186718294,0,0.06351086091383476,0.4434410833222356,1.037678810476441,0,0.6852387818122778,0.5955391474958731,0.6490365154130382,0,1.224674614376081,0.8471047949373898,0.6630320829978945,0,1.066297944471033,0.610310981837117,770,835.2747252747253,811.0989010989011,809.8901098901099,746.6300366300367,1107.252747252747,-0.462708,0.013306,0.867920,0.037384,-1.024323,-0.717773,422502344.322344,325838534.798535,2515091.575092,82.142456,1,1,1,1,1,94.000000
2025-09-24 16:04:10.032,0.9929448243718288,0,0.2496067819015572,0.5630849281554859,1.149636186718294,0,0.06351086091383476,0.4434410833222356,1.037678810476441,0,0.6852387818122778,0.5955391474958731,0.6490365154130382,0,1.224674614376081,0.8471047949373898,0.6630320829978945,0,1.066297944471033,0.610310981837117,778.4615384615385,758.3150183150184,807.8754578754579,808.2783882783883,821.978021978022,911.8315018315019,-0.462708,0.013306,0.867920,0.037384,-1.024323,-0.717773,422502344.322344,325838534.798535,2515091.575092,82.142456,1,1,1,1,1,94.000000
2025-09-24 16:04:10.032,0.9929448243718288,0,0.2496067819015572,0.5630849281554859,1.149636186718294,0,0.06351086091383476,0.4434410833222356,1.037678810476441,0,0.6852387818122778,0.5955391474958731,0.6490365154130382,0,1.224674614376081,0.8471047949373898,0.6630320829978945,0,1.066297944471033,0.610310981837117,780.0732600732601,757.5091575091575,805.8608058608058,810.6959706959707,825.6043956043957,630.5860805860806,-0.462708,0.013306,0.867920,0.037384,-1.024323,-0.717773,422502344.322344,325838534.798535,2515091.575092,82.142456,1,1,1,1,1,94.000000
2025-09-24 16:04:10.032,0.9929448243718288,0,0.2496067819015572,0.5630849281554859,1.149636186718294,0,0.06351086091383476,0.4434410833222356,1.037678810476441,0,0.6852387818122778,0.5955391474958731,0.6490365154130382,0,1.224674614376081,0.8471047949373898,0.6630320829978945,0,1.066297944471033,0.610310981837117,790.952380952381,884.8351648351648,810.6959706959707,818.7545787545788,804.6520146520147,881.2087912087912,-0.462708,0.013306,0.867920,0.037384,-1.024323,-0.717773,422502344.322344,325838534.798535,2515091.575092,82.142456,1,1,1,1,1,94.000000
2025-09-24 16:04:10.032,0.9929448243718288,0,0.2496067819015572,0.5630849281554859,1.149636186718294,0,0.06351086091383476,0.4434410833222356,1.037678810476441,0,0.6852387818122778,0.5955391474958731,0.6490365154130382,0,1.224674614376081,0.8471047949373898,0.6630320829978945,0,1.066297944471033,0.610310981837117,783.6996336996338,862.2710622710623,809.4871794871796,813.5164835164835,829.6336996336996,1097.985347985348,-0.462708,0.013306,0.867920,0.037384,-1.024323,-0.717773,422502344.322344,325838534.798535,2515091.575092,82.142456,1,1,1,1,1,94.000000
2025-09-24 16:04:10.032,0.9929448243718288,0,0.2496067819015572,0.5630849281554859,1.149636186718294,0,0.06351086091383476,0.4434410833222356,1.037678810476441,0,0.6852387818122778,0.5955391474958731,0.6490365154130382,0,1.224674614376081,0.8471047949373898,0.6630320829978945,0,1.066297944471033,0.610310981837117,764.7619047619048,773.6263736263736,799.4139194139194,806.2637362637363,833.6630036630037,836.4835164835165,-0.462708,0.013306,0.867920,0.037384,-1.024323,-0.717773,422502344.322344,325838534.798535,2515091.575092,82.142456,1,1,1,1,1,94.000000
2025-09-24 16:04:10.032,0.9929448243718288,0,0.2496067819015572,0.5630849281554859,1.149636186718294,0,0.06351086091383476,0.4434410833222356,1.037678810476441,0,0.6852387818122778,0.5955391474958731,0.6490365154130382,0,1.224674614376081,0.8471047949373898,0.6630320829978945,0,1.066297944471033,0.610310981837117,760.7326007326008,816.3369963369963,792.967032967033,803.040293040293,882.4175824175825,745.8241758241759,-0.459595,0.002502,0.871521,0.314026,-1.196289,-0.687866,422502344.322344,325838534.798535,2515091.575092,82.142456,1,1,1,1,1,94.000000
2025-09-24 16:04:10.032,0.9929448243718288,0,0.2496067819015572,0.5630849281554859,1.149636186718294,0,0.06351086091383476,0.4434410833222356,1.037678810476441,0,0.6852387818122778,0.5955391474958731,0.6490365154130382,0,1.224674614376081,0.8471047949373898,0.6630320829978945,0,1.066297944471033,0.610310981837117,764.3589743589744,820.3663003663004,791.7582417582418,786.9230769230769,910.6227106227107,779.2673992673992,-0.459595,0.002502,0.871521,0.314026,-1.196289,-0.687866,422502344.322344,325838534.798535,2515091.575092,82.142456,1,1,1,1,1,94.000000
2025-09-24 16:04:10.032,0.9929448243718288,0,0.2496067819015572,0.5630849281554859,1.149636186718294,0,0.06351086091383476,0.4434410833222356,1.037678810476441,0,0.6852387818122778,0.5955391474958731,0.6490365154130382,0,1.224674614376081,0.8471047949373898,0.6630320829978945,0,1.066297944471033,0.610310981837117,767.985347985348,815.5311355311355,796.5934065934066,787.3260073260074,869.92673992674,732.9304029304029,-0.459595,0.002502,0.871521,0.314026,-1.196289,-0.687866,422502344.322344,325838534.798535,2515091.575092,82.142456,1,1,1,1,1,94.000000
2025-09-24 16:04:10.032,0.9929448243718288,0,0.2496067819015572,0.5630849281554859,1.149636186718294,0,0.06351086091383476,0.4434410833222356,1.037678810476441,0,0.6852387818122778,0.5955391474958731,0.6490365154130382,0,1.224674614376081,0.8471047949373898,0.6630320829978945,0,1.066297944471033,0.610310981837117,749.047619047619,803.040293040293,782.893772893773,797.3992673992674,847.7655677655678,712.3809523809524,-0.459595,0.002502,0.871521,0.314026,-1.196289,-0.687866,422502344.322344,325838534.798535,2515091.575092,82.142456,1,1,1,1,1,94.000000
2025-09-24 16:04:10.033,0.9929448243718288,0,0.2496067819015572,0.5630849281554859,1.149636186718294,0,0.06351086091383476,0.4434410833222356,1.037678810476441,0,0.6852387818122778,0.5955391474958731,0.6490365154130382,0,1.224674614376081,0.8471047949373898,0.6630320829978945,0,1.066297944471033,0.610310981837117,734.1391941391942,773.6263736263736,765.9706959706959,786.1172161172161,841.7216117216118,651.5384615384615,-0.459595,0.002502,0.871521,0.314026,-1.196289,-0.687866,422502344.322344,325838534.798535,2515091.575092,82.142456,1,1,1,1,1,94.000000
2025-09-24 16:04:10.033,0.9929448243718288,0,0.2496067819015572,0.5630849281554859,1.149636186718294,0,0.06351086091383476,0.4434410833222356,1.037678810476441,0,0.6852387818122778,0.5955391474958731,0.6490365154130382,0,1.224674614376081,0.8471047949373898,0.6630320829978945,0,1.066297944471033,0.610310981837117,729.7069597069598,854.2124542124542,781.6849816849817,790.1465201465202,803.040293040293,858.2417582417582,-0.459595,0.002502,0.871521,0.314026,-1.196289,-0.687866,422502344.322344,325838534.798535,2515091.575092,82.142456,1,1,1,1,1,94.000000
2025-09-24 16:04:10.033,0.9929448243718288,0,0.2496067819015572,0.5630849281554859,1.149636186718294,0,0.06351086091383476,0.4434410833222356,1.037678810476441,0,0.6852387818122778,0.5955391474958731,0.6490365154130382,0,1.224674614376081,0.8471047949373898,0.6630320829978945,0,1.066297944471033,0.610310981837117,738.5714285714286,888.8644688644689,793.7728937728938,803.4432234432235,831.2454212454213,1178.571428571429,-0.459595,0.002502,0.871521,0.314026,-1.196289,-0.687866,422502344.322344,325838534.798535,2515091.575092,82.142456,1,1,1,1,1,94.000000
2025-09-24 16:04:10.033,0.9929448243718288,0,0.2496067819015572,0.5630849281554859,1.149636186718294,0,0.06351086091383476,0.4434410833222356,1.037678810476441,0,0.6852387818122778,0.5955391474958731,0.6490365154130382,0,1.224674614376081,0.8471047949373898,0.6630320829978945,0,1.066297944471033,0.610310981837117,749.047619047619,804.6520146520147,793.3699633699634,795.7875457875458,884.4322344322345,1079.450549450549,-0.459595,0.002502,0.871521,0.314026,-1.196289,-0.687866,422502344.322344,325838534.798535,2515091.575092,82.142456,1,1,1,1,1,94.000000
2025-09-24 16:04:10.033,0.9929448243718288,0,0.2496067819015572,0.5630849281554859,1.149636186718294,0,0.06351086091383476,0.4434410833222356,1.037678810476441,0,0.6852387818122778,0.5955391474958731,0.6490365154130382,0,1.224674614376081,0.8471047949373898,0.6630320829978945,0,1.066297944471033,0.610310981837117,734.9450549450549,748.2417582417582,796.1904761904763,790.5494505494506,897.3260073260074,695.0549450549451,-0.459595,0.002502,0.871521,0.314026,-1.196289,-0.687866,422502344.322344,325838534.798535,2515091.575092,82.142456,1,1,1,1,1,94.000000
2025-09-24 16:04:10.033,0.9929448243718288,0,0.2496067819015572,0.5630849281554859,1.149636186718294,0,0.06351086091383476,0.4434410833222356,1.037678810476441,0,0.6852387818122778,0.5955391474958731,0.6490365154130382,0,1.224674614376081,0.8471047949373898,0.6630320829978945,0,1.066297944471033,0.610310981837117,730.1098901098901,802.2344322344322,799.0109890109891,786.5201465201466,863.0769230769231,627.3626373626374,-0.459595,0.002502,0.871521,0.314026,-1.196289,-0.687866,422502344.322344,325838534.798535,2515091.575092,82.142456,1,1,1,1,1,94.000000
2025-09-24 16:04:10.033,0.9929448243718288,0,0.2496067819015572,0.5630849281554859,1.149636186718294,0,0.06351086091383476,0.4434410833222356,1.037678810476441,0,0.6852387818122778,0.5955391474958731,0.6490365154130382,0,1.224674614376081,0.8471047949373898,0.6630320829978945,0,1.066297944471033,0.610310981837117,738.5714285714286,819.5604395604396,803.4432234432235,776.0439560439561,817.5457875457876,699.8901098901099,-0.459595,0.002502,0.871521,0.314026,-1.196289,-0.687866,422502344.322344,325838534.798535,2515091.575092,82.142456,1,1,1,1,1,94.000000
2025-09-24 16:04:10.033,0.9929448243718288,0,0.2714974294574876,0.5630849281554859,1.149636186718294,0,0.06353786818782241,0.4434410833222356,1.037678810476441,0,0.6852387818122778,0.5955391474958731,0.6490365154130382,0,1.210235725704556,0.8471047949373898,0.6630320829978945,0,1.057562514525176,0.610310981837117,742.6007326007326,817.5457875457876,811.9047619047619,788.1318681318681,845.7509157509157,716.8131868131868,-0.459595,0.002502,0.871521,0.314026,-1.196289,-0.687866,422502344.322344,325838534.798535,2515091.575092,82.142456,1,1,1,1,1,94.000000
2025-09-24 16:04:10.034,0.9929448243718288,0,0.2714974294574876,0.5630849281554859,1.149636186718294,0,0.06353786818782241,0.4434410833222356,1.037678810476441,0,0.6852387818122778,0.5955391474958731,0.6490365154130382,0,1.210235725704556,0.8471047949373898,0.6630320829978945,0,1.057562514525176,0.610310981837117,746.2271062271062,786.9230769230769,805.8608058608058,789.7435897435897,838.4981684981685,665.2380952380953,-0.455444,0.013489,0.875549,0.358887,-0.695343,-0.082245,422502344.322344,327719413.919414,2539267.399267,82.142456,1,1,1,1,1,94.000000
2025-09-24 16:04:10.034,0.9929448243718288,0,0.2714974294574876,0.5630849281554859,1.149636186718294,0,0.06353786818782241,0.4434410833222356,1.037678810476441,0,0.6852387818122778,0.5955391474958731,0.6490365154130382,0,1.210235725704556,0.8471047949373898,0.6630320829978945,0,1.057562514525176,0.610310981837117,753.0769230769231,804.6520146520147,793.7728937728938,786.5201465201466,811.0989010989011,717.2161172161173,-0.455444,0.013489,0.875549,0.358887,-0.695343,-0.082245,422502344.322344,327719413.919414,2539267.399267,82.142456,1,1,1,1,1,94.000000
2025-09-24 16:04:10.034,0.9929448243718288,0,0.2714974294574876,0.5630849281554859,1.149636186718294,0,0.06353786818782241,0.4434410833222356,1.037678810476441,0,0.6852387818122778,0.5955391474958731,0.6490365154130382,0,1.210235725704556,0.8471047949373898,0.6630320829978945,0,1.057562514525176,0.610310981837117,755.0915750915751,796.996336996337,799.4139194139194,793.3699633699634,813.1135531135532,750.6593406593407,-0.455444,0.013489,0.875549,0.358887,-0.695343,-0.082245,422502344.322344,327719413.919414,2539267.399267,82.142456,1,1,1,1,1,94.000000
2025-09-24 16:04:10.034,0.9929448243718288,0,0.2714974294574876,0.5630849281554859,1.149636186718294,0,0.06353786818782241,0.4434410833222356,1.037678810476441,0,0.6852387818122778,0.5955391474958731,0.6490365154130382,0,1.210235725704556,0.8471047949373898,0.6630320829978945,0,1.057562514525176,0.610310981837117,740.989010989011,769.5970695970697,804.2490842490843,782.4908424908425,823.992673992674,713.992673992674,-0.455444,0.013489,0.875549,0.358887,-0.695343,-0.082245,422502344.322344,327719413.919414,2539267.399267,82.142456,1,1,1,1,1,94.000000
2025-09-24 16:04:10.034,0.9929448243718288,0,0.2714974294574876,0.5630849281554859,1.149636186718294,0,0.06353786818782241,0.4434410833222356,1.037678810476441,0,0.6852387818122778,0.5955391474958731,0.6490365154130382,0,1.210235725704556,0.8471047949373898,0.6630320829978945,0,1.057562514525176,0.610310981837117,747.4358974358975,791.7582417582418,779.6703296703297,782.893772893773,848.974358974359,703.5164835164835,-0.455444,0.013489,0.875549,0.358887,-0.695343,-0.082245,422502344.322344,327719413.919414,2539267.399267,82.142456,1,1,1,1,1,94.000000
2025-09-24 16:04:10.034,0.9929448243718288,0,0.2714974294574876,0.5630849281554859,1.149636186718294,0,0.06353786818782241,0.4434410833222356,1.037678810476441,0,0.6852387818122778,0.5955391474958731,0.6490365154130382,0,1.210235725704556,0.8471047949373898,0.6630320829978945,0,1.057562514525176,0.610310981837117,765.1648351648352,875.1648351648352,755.8974358974359,798.2051282051282,789.3406593406594,889.2673992673992,-0.455444,0.013489,0.875549,0.358887,-0.695343,-0.082245,422502344.322344,327719413.919414,2539267.399267,82.142456,1,1,1,1,1,94.000000
2025-09-24 16:04:10.034,0.9929448243718288,0,0.2714974294574876,0.5630849281554859,1.149636186718294,0,0.06353786818782241,0.4434410833222356,1.037678810476441,0,0.6852387818122778,0.5955391474958731,0.6490365154130382,0,1.210235725704556,0.8471047949373898,0.6630320829978945,0,1.057562514525176,0.610310981837117,755.0915750915751,867.5091575091575,782.4908424908425,799.4139194139194,813.5164835164835,1193.882783882784,-0.455444,0.013489,0.875549,0.358887,-0.695343,-0.082245,422502344.322344,327719413.919414,2539267.399267,82.142456,1,1,1,1,1,94.000000
2025-09-24 16:04:10.034,0.9929448243718288,0,0.2714974294574876,0.5630849281554859,1.149636186718294,0,0.06353786818782241,0.4434410833222356,1.037678810476441,0,0.6852387818122778,0.5955391474958731,0.6490365154130382,0,1.210235725704556,0.8471047949373898,0.6630320829978945,0,1.057562514525176,0.610310981837117,738.974358974359,745.8241758241759,814.7252747252747,789.3406593406594,857.4358974358975,941.2454212454213,-0.455444,0.013489,0.875549,0.358887,-0.695343,-0.082245,422502344.322344,327719413.919414,2539267.399267,82.142456,1,1,1,1,1,94.000000
2025-09-24 16:04:10.034,0.9929448243718288,0,0.2714974294574876,0.5630849281554859,1.149636186718294,0,0.06353786818782241,0.4434410833222356,1.037678810476441,0,0.6852387818122778,0.5955391474958731,0.6490365154130382,0,1.210235725704556,0.8471047949373898,0.6630320829978945,0,1.057562514525176,0.610310981837117,730.9157509157509,818.3516483516484,828.021978021978,776.4468864468864,801.4285714285714,734.5421245421246,-0.455444,0.013489,0.875549,0.358887,-0.695343,-0.082245,422502344.322344,327719413.919414,2539267.399267,82.142456,1,1,1,1,1,94.000000
2025-09-24 16:04:10.034,0.9929448243718288,0,0.2714974294574876,0.5630849281554859,1.149636186718294,0,0.06353786818782241,0.4434410833222356,1.037678810476441,0,0.6852387818122778,0.5955391474958731,0.6490365154130382,0,1.210235725704556,0.8471047949373898,0.6630320829978945,0,1.057562514525176,0.610310981837117,740.5860805860806,895.7142857142858,835.6776556776557,772.014652014652,829.2307692307693,1003.296703296703,-0.455444,0.013489,0.875549,0.358887,-0.695343,-0.082245,422502344.322344,327719413.919414,2539267.399267,82.142456,1,1,1,1,1,94.000000
2025-09-24 16:04:10.035,0.9929448243718288,0,0.2714974294574876,0.5630849281554859,1.149636186718294,0,0.06353786818782241,0.4434410833222356,1.037678810476441,0,0.6852387818122778,0.5955391474958731,0.6490365154130382,0,1.210235725704556,0.8471047949373898,0.6630320829978945,0,1.057562514525176,0.610310981837117,753.8827838827839,793.7728937728938,835.6776556776557,785.3113553113553,851.3919413919414,876.3736263736264,-0.455444,0.013489,0.875549,0.358887,-0.695343,-0.082245,422502344.322344,327719413.919414,2539267.399267,82.142456,1,1,1,1,1,94.000000
2025-09-24 16:04:10.035,0.9929448243718288,0,0.2714974294574876,0.5630849281554859,1.149636186718294,0,0.06353786818782241,0.4434410833222356,1.037678810476441,0,0.6852387818122778,0.5955391474958731,0.6490365154130382,0,1.210235725704556,0.8471047949373898,0.6630320829978945,0,1.057562514525176,0.610310981837117,742.1978021978023,790.1465201465202,835.6776556776557,792.5641025641025,823.992673992674,675.3113553113553,-0.455444,0.013489,0.875549,0.358887,-0.695343,-0.082245,422502344.322344,327719413.919414,2539267.399267,82.142456,1,1,1,1,1,94.000000
2025-09-24 16:04:10.035,0.9929448243718288,0,0.2714974294574876,0.5630849281554859,1.149636186718294,0,0.06353786818782241,0.4434410833222356,1.037678810476441,0,0.6852387818122778,0.5955391474958731,0.6490365154130382,0,1.210235725704556,0.8471047949373898,0.6630320829978945,0,1.057562514525176,0.610310981837117,727.6923076923077,816.3369963369963,835.6776556776557,788.9377289377289,830.8424908424909,595.934065934066,-0.455444,0.013489,0.875549,0.358887,-0.695343,-0.082245,422502344.322344,327719413.919414,2539267.399267,82.142456,1,1,1,1,1,94.000000
2025-09-24 16:04:10.035,0.9929448243718288,0,0.2714974294574876,0.5630849281554859,1.149636186718294,0,0.06353786818782241,0.4434410833222356,1.037678810476441,0,0.6852387818122778,0.5955391474958731,0.6490365154130382,0,1.210235725704556,0.8471047949373898,0.6630320829978945,0,1.057562514525176,0.610310981837117,744.2124542124542,845.7509157509157,836.0805860805862,787.3260073260074,880.8058608058608,643.8827838827839,-0.455444,0.013489,0.875549,0.358887,-0.695343,-0.082245,422502344.322344,327719413.919414,2539267.399267,82.142456,1,1,1,1,1,94.000000
2025-09-24 16:04:10.035,0.9929448243718288,0,0.2714974294574876,0.5630849281554859,1.149636186718294,0,0.06353786818782241,0.4434410833222356,1.037678810476441,0,0.6852387818122778,0.5955391474958731,0.6490365154130382,0,1.210235725704556,0.8471047949373898,0.6630320829978945,0,1.057562514525176,0.610310981837117,760.3296703296703,803.040293040293,834.0659340659341,790.5494505494506,892.4908424908425,774.4322344322345,-0.455444,0.013489,0.875549,0.358887,-0.695343,-0.082245,422502344.322344,327719413.919414,2539267.399267,82.142456,1,1,1,1,1,94.000000
2025-09-24 16:04:10.035,0.9929448243718288,0,0.2714974294574876,0.5630849281554859,1.149636186718294,0,0.06353786818782241,0.4434410833222356,1.037678810476441,0,0.6852387818122778,0.5955391474958731,0.6490365154130382,0,1.210235725704556,0.8471047949373898,0.6630320829978945,0,1.057562514525176,0.610310981837117,743.8095238095239,761.941391941392,819.96336996337,791.3553113553114,877.985347985348,766.7765567765568,-0.455444,0.013489,0.875549,0.358887,-0.695343,-0.082245,422502344.322344,327719413.919414,2539267.399267,82.142456,1,1,1,1,1,94.000000
2025-09-24 16:04:10.035,0.9929448243718288,0,0.2714974294574876,0.5630849281554859,1.149636186718294,0,0.06353786818782241,0.4434410833222356,1.037678810476441,0,0.6852387818122778,0.5955391474958731,0.6490365154130382,0,1.210235725704556,0.8471047949373898,0.6630320829978945,0,1.057562514525176,0.610310981837117,731.7216117216118,817.5457875457876,809.8901098901099,789.7435897435897,866.7032967032967,971.8681318681319,-0.455444,0.013489,0.875549,0.358887,-0.695343,-0.082245,422502344.322344,327719413.919414,2539267.399267,82.142456,1,1,1,1,1,94.000000
2025-09-24 16:04:10.035,0.9929448243718288,0,0.2714974294574876,0.5630849281554859,1.149636186718294,0,0.06353786818782241,0.4434410833222356,1.037678810476441,0,0.6852387818122778,0.5955391474958731,0.6490365154130382,0,1.210235725704556,0.8471047949373898,0.6630320829978945,0,1.057562514525176,0.610310981837117,752.2710622710623,852.6007326007326,803.4432234432235,793.7728937728938,833.6630036630037,1183.406593406593,-0.455444,0.013489,0.875549,0.358887,-0.695343,-0.082245,422502344.322344,327719413.919414,2539267.399267,82.142456,1,1,1,1,1,94.000000
2025-09-24 16:04:10.035,0.9929448243718288,0,0.2714974294574876,0.5630849281554859,1.149636186718294,0,0.06353786818782241,0.4434410833222356,1.037678810476441,0,0.6852387818122778,0.5955391474958731,0.6490365154130382,0,1.210235725704556,0.8471047949373898,0.6630320829978945,0,1.057562514525176,0.610310981837117,765.1648351648352,803.8461538461539,799.0109890109891,791.3553113553114,815.5311355311355,1172.527472527473,-0.455444,0.013489,0.875549,0.358887,-0.695343,-0.082245,422502344.322344,327719413.919414,2539267.399267,82.142456,1,1,1,1,1,94.000000
2025-09-24 16:04:10.035,0.9929448243718288,0,0.2714974294574876,0.5630849281554859,1.149636186718294,0,0.06353786818782241,0.4434410833222356,1.037678810476441,0,0.6852387818122778,0.5955391474958731,0.6490365154130382,0,1.210235725704556,0.8471047949373898,0.6630320829978945,0,1.057562514525176,0.610310981837117,754.2857142857143,738.1684981684982,805.8608058608058,786.9230769230769,887.2527472527473,940.0366300366301,-0.455444,0.013489,0.875549,0.358887,-0.695343,-0.082245,422502344.322344,327719413.919414,2539267.399267,82.142456,1,1,1,1,1,94.000000
2025-09-24 16:04:10.035,0.9929448243718288,0,0.2714974294574876,0.5630849281554859,1.149636186718294,0,0.06353786818782241,0.4434410833222356,1.037678810476441,0,0.6852387818122778,0.5955391474958731,0.6490365154130382,0,1.210235725704556,0.8471047949373898,0.6630320829978945,0,1.057562514525176,0.610310981837117,744.2124542124542,777.6556776556777,814.7252747252747,788.5347985347986,938.4249084249085,712.7838827838829,-0.455444,0.013489,0.875549,0.358887,-0.695343,-0.082245,422502344.322344,327719413.919414,2539267.399267,82.142456,1,1,1,1,1,94.000000
2025-09-24 16:04:10.035,0.9929448243718288,0,0.2714974294574876,0.5630849281554859,1.149636186718294,0,0.06353786818782241,0.4434410833222356,1.037678810476441,0,0.6852387818122778,0.5955391474958731,0.6490365154130382,0,1.210235725704556,0.8471047949373898,0.6630320829978945,0,1.057562514525176,0.610310981837117,748.2417582417582,823.1868131868132,826.8131868131868,809.0842490842491,850.1831501831502,658.7912087912088,-0.455444,0.013489,0.875549,0.358887,-0.695343,-0.082245,422502344.322344,327719413.919414,2539267.399267,82.142456,1,1,1,1,1,94.000000
2025-09-24 16:04:10.036,0.9929448243718288,0,0.2714974294574876,0.5630849281554859,1.149636186718294,0,0.06353786818782241,0.4434410833222356,1.037678810476441,0,0.6852387818122778,0.5955391474958731,0.6490365154130382,0,1.210235725704556,0.8471047949373898,0.6630320829978945,0,1.057562514525176,0.610310981837117,761.941391941392,823.1868131868132,818.3516483516484,828.4249084249085,804.6520146520147,687.8021978021978,-0.455444,0.013489,0.875549,0.358887,-0.695343,-0.082245,422502344.322344,327719413.919414,2539267.399267,82.142456,1,1,1,1,1,94.000000
2025-09-24 16:04:10.036,0.9929448243718288,0,0.2714974294574876,0.5630849281554859,1.149636186718294,0,0.06353786818782241,0.4434410833222356,1.037678810476441,0,0.6852387818122778,0.5955391474958731,0.6490365154130382,0,1.210235725704556,0.8471047949373898,0.6630320829978945,0,1.057562514525176,0.610310981837117,778.8644688644689,788.5347985347986,801.025641025641,814.7252747252747,811.0989010989011,709.5604395604396,-0.455444,0.013489,0.875549,0.358887,-0.695343,-0.082245,422502344.322344,327719413.919414,2539267.399267,82.142456,1,1,1,1,1,94.000000
2025-09-24 16:04:10.036,0.9929448243718288,0,0.2714974294574876,0.5630849281554859,1.149636186718294,0,0.06353786818782241,0.4434410833222356,1.037678810476441,0,0.6852387818122778,0.5955391474958731,0.6490365154130382,0,1.210235725704556,0.8471047949373898,0.6630320829978945,0,1.057562514525176,0.610310981837117,787.3260073260074,769.5970695970697,810.2930402930403,799.4139194139194,790.5494505494506,606.8131868131868,-0.458313,0.008301,0.872864,-0.082245,1.644897,0.082245,422502344.322344,328276263.736264,2544908.424908,82.142456,1,1,1,1,1,94.000000
2025-09-24 16:04:10.036,0.9929448243718288,0,0.2714974294574876,0.5630849281554859,1.149636186718294,0,0.06353786818782241,0.4434410833222356,1.037678810476441,0,0.6852387818122778,0.5955391474958731,0.6490365154130382,0,1.210235725704556,0.8471047949373898,0.6630320829978945,0,1.057562514525176,0.610310981837117,795.7875457875458,801.025641025641,805.4578754578755,798.2051282051282,782.0879120879121,599.9633699633699,-0.458313,0.008301,0.872864,-0.082245,1.644897,0.082245,422502344.322344,328276263.736264,2544908.424908,82.142456,1,1,1,1,1,94.000000
2025-09-24 16:04:10.036,0.9929448243718288,0,0.2714974294574876,0.5630849281554859,1.149636186718294,0,0.06353786818782241,0.4434410833222356,1.037678810476441,0,0.6852387818122778,0.5955391474958731,0.6490365154130382,0,1.210235725704556,0.8471047949373898,0.6630320829978945,0,1.057562514525176,0.610310981837117,800.2197802197802,796.1904761904763,783.2967032967033,790.952380952381,755.0915750915751,691.8315018315019,-0.458313,0.008301,0.872864,-0.082245,1.644897,0.082245,422502344.322344,328276263.736264,2544908.424908,82.142456,1,1,1,1,1,94.000000
2025-09-24 16:04:10.037,0.9929448243718288,0,0.2714974294574876,0.5630849281554859,1.149636186718294,0,0.06353786818782241,0.4434410833222356,1.037678810476441,0,0.6852387818122778,0.5955391474958731,0.6490365154130382,0,1.210235725704556,0.8471047949373898,0.6630320829978945,0,1.057562514525176,0.610310981837117,796.1904761904763,785.3113553113553,792.967032967033,788.1318681318681,811.5018315018315,763.1501831501831,-0.458313,0.008301,0.872864,-0.082245,1.644897,0.082245,422502344.322344,328276263.736264,2544908.424908,82.142456,1,1,1,1,1,94.000000
2025-09-24 16:04:10.037,0.9929448243718288,0,0.2714974294574876,0.5630849281554859,1.149636186718294,0,0.06353786818782241,0.4434410833222356,1.037678810476441,0,0.6852387818122778,0.5955391474958731,0.6490365154130382,0,1.210235725704556,0.8471047949373898,0.6630320829978945,0,1.057562514525176,0.610310981837117,800.6227106227107,777.6556776556777,815.934065934066,794.1758241758242,837.2893772893773,768.7912087912088,-0.458313,0.008301,0.872864,-0.082245,1.644897,0.082245,422502344.322344,328276263.736264,2544908.424908,82.142456,1,1,1,1,1,94.000000
2025-09-24 16:04:10.037,0.9929448243718288,0,0.2714974294574876,0.5630849281554859,1.149636186718294,0,0.06353786818782241,0.4434410833222356,1.037678810476441,0,0.6852387818122778,0.5955391474958731,0.6490365154130382,0,1.210235725704556,0.8471047949373898,0.6630320829978945,0,1.057562514525176,0.610310981837117,803.8461538461539,855.4212454212454,807.0695970695971,793.3699633699634,818.3516483516484,1031.098901098901,-0.458313,0.008301,0.872864,-0.082245,1.644897,0.082245,422502344.322344,328276263.736264,2544908.424908,82.142456,1,1,1,1,1,94.000000
2025-09-24 16:04:10.037,0.9929448243718288,0,0.2714974294574876,0.5630849281554859,1.149636186718294,0,0.06353786818782241,0.4434410833222356,1.037678810476441,0,0.6852387818122778,0.5955391474958731,0.6490365154130382,0,1.210235725704556,0.8471047949373898,0.6630320829978945,0,1.057562514525176,0.610310981837117,807.8754578754579,825.2014652014652,782.893772893773,790.952380952381,837.2893772893773,1210,-0.458313,0.008301,0.872864,-0.082245,1.644897,0.082245,422502344.322344,328276263.736264,2544908.424908,82.142456,1,1,1,1,1,94.000000
2025-09-24 16:04:10.037,0.9929448243718288,0,0.2714974294574876,0.5630849281554859,1.149636186718294,0,0.06353786818782241,0.4434410833222356,1.037678810476441,0,0.6852387818122778,0.5955391474958731,0.6490365154130382,0,1.210235725704556,0.8471047949373898,0.6630320829978945,0,1.057562514525176,0.610310981837117,800.6227106227107,742.6007326007326,783.2967032967033,778.0586080586081,843.3333333333334,1089.52380952381,-0.458313,0.008301,0.872864,-0.082245,1.644897,0.082245,422502344.322344,328276263.736264,2544908.424908,82.142456,1,1,1,1,1,94.000000
2025-09-24 16:04:10.037,0.9929448243718288,0,0.2714974294574876,0.5630849281554859,1.149636186718294,0,0.06353786818782241,0.4434410833222356,1.037678810476441,0,0.6852387818122778,0.5955391474958731,0.6490365154130382,0,1.210235725704556,0.8471047949373898,0.6630320829978945,0,1.057562514525176,0.610310981837117,774.0293040293041,752.6739926739926,812.3076923076924,769.1941391941392,869.5238095238095,881.2087912087912,-0.458313,0.008301,0.872864,-0.082245,1.644897,0.082245,422502344.322344,328276263.736264,2544908.424908,82.142456,1,1,1,1,1,94.000000
2025-09-24 16:04:10.037,0.9929448243718288,0,0.2714974294574876,0.5630849281554859,1.149636186718294,0,0.06353786818782241,0.4434410833222356,1.037678810476441,0,0.6852387818122778,0.5955391474958731,0.6490365154130382,0,1.210235725704556,0.8471047949373898,0.6630320829978945,0,1.057562514525176,0.610310981837117,769.5970695970697,826.8131868131868,826.4102564102565,771.2087912087912,842.9304029304029,886.4468864468864,-0.458313,0.008301,0.872864,-0.082245,1.644897,0.082245,422502344.322344,328276263.736264,2544908.424908,82.142456,1,1,1,1,1,94.000000
2025-09-24 16:04:10.037,0.9929448243718288,0,0.2714974294574876,0.5630849281554859,1.149636186718294,0,0.06353786818782241,0.4434410833222356,1.037678810476441,0,0.6852387818122778,0.5955391474958731,0.6490365154130382,0,1.210235725704556,0.8471047949373898,0.6630320829978945,0,1.057562514525176,0.610310981837117,780.4761904761905,807.4725274725275,826.8131868131868,776.8498168498169,849.3772893772895,886.8498168498169,-0.458313,0.008301,0.872864,-0.082245,1.644897,0.082245,422502344.322344,328276263.736264,2544908.424908,82.142456,1,1,1,1,1,94.000000
2025-09-24 16:04:10.037,0.9929448243718288,0,0.2714974294574876,0.5630849281554859,1.149636186718294,0,0.06353786818782241,0.4434410833222356,1.037678810476441,0,0.6852387818122778,0.5955391474958731,0.6490365154130382,0,1.210235725704556,0.8471047949373898,0.6630320829978945,0,1.057562514525176,0.610310981837117,788.1318681318681,802.6373626373627,834.8717948717949,773.6263736263736,868.3150183150184,697.0695970695971,-0.458313,0.008301,0.872864,-0.082245,1.644897,0.082245,422502344.322344,328276263.736264,2544908.424908,82.142456,1,1,1,1,1,94.000000
2025-09-24 16:04:10.038,0.9929448243718288,0,0.2714974294574876,0.5630849281554859,1.149636186718294,0,0.06353786818782241,0.4434410833222356,1.037678810476441,0,0.6852387818122778,0.5955391474958731,0.6490365154130382,0,1.210235725704556,0.8471047949373898,0.6630320829978945,0,1.057562514525176,0.610310981837117,785.3113553113553,823.1868131868132,837.6923076923077,773.6263736263736,836.8864468864469,716.4102564102565,-0.469177,0.009827,0.859741,1.039276,1.532745,-0.672913,422502344.322344,328276263.736264,2544908.424908,82.142456,1,1,1,1,1,94.000000
2025-09-24 16:04:10.038,0.9929448243718288,0,0.2714974294574876,0.5630849281554859,1.149636186718294,0,0.06353786818782241,0.4434410833222356,1.037678810476441,0,0.6852387818122778,0.5955391474958731,0.6490365154130382,0,1.210235725704556,0.8471047949373898,0.6630320829978945,0,1.057562514525176,0.610310981837117,777.2527472527473,793.3699633699634,824.3956043956044,787.7289377289378,803.4432234432235,687.3992673992674,-0.469177,0.009827,0.859741,1.039276,1.532745,-0.672913,422502344.322344,328276263.736264,2544908.424908,82.142456,1,1,1,1,1,94.000000
2025-09-24 16:04:10.038,0.9929448243718288,0,0.2714974294574876,0.5630849281554859,1.149636186718294,0,0.06353786818782241,0.4434410833222356,1.037678810476441,0,0.6852387818122778,0.5955391474958731,0.6490365154130382,0,1.210235725704556,0.8471047949373898,0.6630320829978945,0,1.057562514525176,0.610310981837117,778.8644688644689,811.9047619047619,810.6959706959707,800.2197802197802,832.0512820512821,717.6190476190476,-0.469177,0.009827,0.859741,1.039276,1.532745,-0.672913,422502344.322344,328276263.736264,2544908.424908,82.142456,1,1,1,1,1,94.000000
2025-09-24 16:04:10.038,0.9929448243718288,0,0.2714974294574876,0.5630849281554859,1.149636186718294,0,0.06353786818782241,0.4434410833222356,1.037678810476441,0,0.6852387818122778,0.5955391474958731,0.6490365154130382,0,1.210235725704556,0.8471047949373898,0.6630320829978945,0,1.057562514525176,0.610310981837117,790.1465201465202,817.948717948718,805.0549450549451,797.8021978021978,859.047619047619,765.5677655677656,-0.469177,0.009827,0.859741,1.039276,1.532745,-0.672913,422502344.322344,328276263.736264,2544908.424908,82.142456,1,1,1,1,1,94.000000
2025-09-24 16:04:10.038,0.9929448243718288,0,0.2714974294574876,0.5630849281554859,1.149636186718294,0,0.06353786818782241,0.4434410833222356,1.037678810476441,0,0.6852387818122778,0.5955391474958731,0.6490365154130382,0,1.210235725704556,0.8471047949373898,0.6630320829978945,0,1.057562514525176,0.610310981837117,789.3406593406594,813.1135531135532,804.2490842490843,796.5934065934066,875.5677655677656,776.8498168498169,-0.469177,0.009827,0.859741,1.039276,1.532745,-0.672913,422502344.322344,328276263.736264,2544908.424908,82.142456,1,1,1,1,1,94.000000
2025-09-24 16:04:10.038,0.9929448243718288,0,0.2714974294574876,0.5630849281554859,1.149636186718294,0,0.06353786818782241,0.4434410833222356,1.037678810476441,0,0.6852387818122778,0.5955391474958731,0.6490365154130382,0,1.210235725704556,0.8471047949373898,0.6630320829978945,0,1.057562514525176,0.610310981837117,782.4908424908425,838.901098901099,801.025641025641,806.6666666666667,916.6666666666667,967.032967032967,-0.469177,0.009827,0.859741,1.039276,1.532745,-0.672913,422502344.322344,328276263.736264,2544908.424908,82.142456,1,1,1,1,1,94.000000
2025-09-24 16:04:10.038,0.9929448243718288,0,0.2714974294574876,0.5630849281554859,1.149636186718294,0,0.06353786818782241,0.4434410833222356,1.037678810476441,0,0.6852387818122778,0.5955391474958731,0.6490365154130382,0,1.210235725704556,0.8471047949373898,0.6630320829978945,0,1.057562514525176,0.610310981837117,785.3113553113553,826.8131868131868,803.4432234432235,813.1135531135532,862.6739926739926,1165.677655677656,-0.469177,0.009827,0.859741,1.039276,1.532745,-0.672913,422502344.322344,328276263.736264,2544908.424908,82.142456,1,1,1,1,1,94.000000
2025-09-24 16:04:10.038,0.9929448243718288,0,0.2714974294574876,0.5630849281554859,1.149636186718294,0,0.06353786818782241,0.4434410833222356,1.037678810476441,0,0.6852387818122778,0.5955391474958731,0.6490365154130382,0,1.210235725704556,0.8471047949373898,0.6630320829978945,0,1.057562514525176,0.610310981837117,794.1758241758242,754.2857142857143,812.3076923076924,821.978021978022,854.6153846153846,1066.959706959707,-0.469177,0.009827,0.859741,1.039276,1.532745,-0.672913,422502344.322344,328276263.736264,2544908.424908,82.142456,1,1,1,1,1,94.000000
2025-09-24 16:04:10.038,0.9929448243718288,0,0.2714974294574876,0.5630849281554859,1.149636186718294,0,0.06353786818782241,0.4434410833222356,1.037678810476441,0,0.6852387818122778,0.5955391474958731,0.6490365154130382,0,1.210235725704556,0.8471047949373898,0.6630320829978945,0,1.057562514525176,0.610310981837117,802.6373626373627,708.3516483516484,812.7106227106227,813.919413919414,897.3260073260074,716.4102564102565,-0.469177,0.009827,0.859741,1.039276,1.532745,-0.672913,422502344.322344,328276263.736264,2544908.424908,82.142456,1,1,1,1,1,94.000000
2025-09-24 16:04:10.038,0.9929448243718288,0,0.2714974294574876,0.5630849281554859,1.149636186718294,0,0.06353786818782241,0.4434410833222356,1.037678810476441,0,0.6852387818122778,0.5955391474958731,0.6490365154130382,0,1.210235725704556,0.8471047949373898,0.6630320829978945,0,1.057562514525176,0.610310981837117,802.2344322344322,798.2051282051282,811.9047619047619,808.2783882783883,890.0732600732601,643.8827838827839,-0.469177,0.009827,0.859741,1.039276,1.532745,-0.672913,422502344.322344,328276263.736264,2544908.424908,82.142456,1,1,1,1,1,94.000000
2025-09-24 16:04:10.039,0.9929448243718288,0,0.2714974294574876,0.5630849281554859,1.149636186718294,0,0.06353786818782241,0.4434410833222356,1.037678810476441,0,0.6852387818122778,0.5955391474958731,0.6490365154130382,0,1.210235725704556,0.8471047949373898,0.6630320829978945,0,1.057562514525176,0.610310981837117,808.6813186813187,872.7472527472528,807.0695970695971,822.7838827838829,931.5750915750916,843.3333333333334,-0.469177,0.009827,0.859741,1.039276,1.532745,-0.672913,422502344.322344,328276263.736264,2544908.424908,82.142456,1,1,1,1,1,94.000000
2025-09-24 16:04:10.039,0.9929448243718288,0,0.2714974294574876,0.5630849281554859,1.149636186718294,0,0.06353786818782241,0.4434410833222356,1.037678810476441,0,0.6852387818122778,0.5955391474958731,0.6490365154130382,0,1.210235725704556,0.8471047949373898,0.6630320829978945,0,1.057562514525176,0.610310981837117,814.3223443223443,850.5860805860806,766.7765567765568,828.8278388278388,913.040293040293,961.3919413919414,-0.469177,0.009827,0.859741,1.039276,1.532745,-0.672913,422502344.322344,328276263.736264,2544908.424908,82.142456,1,1,1,1,1,94.000000
2025-09-24 16:04:10.060,0.9929448243718288,0,0.2714974294574876,0.5630849281554859,1.149636186718294,0,0.06353786818782241,0.4434410833222356,1.037678810476441,0,0.6852387818122778,0.5955391474958731,0.6490365154130382,0,1.210235725704556,0.8471047949373898,0.6630320829978945,0,1.057562514525176,0.610310981837117,817.948717948718,763.5531135531136,753.4798534798535,832.8571428571429,902.967032967033,954.9450549450549,-0.465393,0.003845,0.859558,0.157013,-0.800018,-0.366364,422502344.322344,328529304.029304,2543296.703297,82.142456,1,1,1,1,1,94.000000
2025-09-24 16:04:10.060,0.9929448243718288,0,0.2714974294574876,0.5630849281554859,1.149636186718294,0,0.06353786818782241,0.4434410833222356,1.037678810476441,0,0.6852387818122778,0.5955391474958731,0.6490365154130382,0,1.210235725704556,0.8471047949373898,0.6630320829978945,0,1.057562514525176,0.610310981837117,811.5018315018315,718.4249084249085,778.4615384615385,822.7838827838829,827.6190476190476,757.9120879120879,-0.465393,0.003845,0.859558,0.157013,-0.800018,-0.366364,422502344.322344,328529304.029304,2543296.703297,82.142456,1,1,1,1,1,94.000000
2025-09-24 16:04:10.060,0.9929448243718288,0,0.2714974294574876,0.5630849281554859,1.149636186718294,0,0.06353786818782241,0.4434410833222356,1.037678810476441,0,0.6852387818122778,0.5955391474958731,0.6490365154130382,0,1.210235725704556,0.8471047949373898,0.6630320829978945,0,1.057562514525176,0.610310981837117,793.3699633699634,786.5201465201466,780.0732600732601,804.2490842490843,823.5897435897436,675.3113553113553,-0.465393,0.003845,0.859558,0.157013,-0.800018,-0.366364,422502344.322344,328529304.029304,2543296.703297,82.142456,1,1,1,1,1,94.000000
2025-09-24 16:04:10.061,0.9929448243718288,0,0.2714974294574876,0.5630849281554859,1.149636186718294,0,0.06353786818782241,0.4434410833222356,1.037678810476441,0,0.6852387818122778,0.5955391474958731,0.6490365154130382,0,1.210235725704556,0.8471047949373898,0.6630320829978945,0,1.057562514525176,0.610310981837117,802.6373626373627,816.3369963369963,798.6080586080586,797.8021978021978,857.032967032967,804.2490842490843,-0.465393,0.003845,0.859558,0.157013,-0.800018,-0.366364,422502344.322344,328529304.029304,2543296.703297,82.142456,1,1,1,1,1,94.000000
2025-09-24 16:04:10.061,0.9929448243718288,0,0.2714974294574876,0.5630849281554859,1.149636186718294,0,0.06353786818782241,0.4434410833222356,1.037678810476441,0,0.6852387818122778,0.5955391474958731,0.6490365154130382,0,1.210235725704556,0.8471047949373898,0.6630320829978945,0,1.057562514525176,0.610310981837117,813.5164835164835,808.2783882783883,809.8901098901099,791.7582417582418,809.0842490842491,724.8717948717949,-0.465393,0.003845,0.859558,0.157013,-0.800018,-0.366364,422502344.322344,328529304.029304,2543296.703297,82.142456,1,1,1,1,1,94.000000
2025-09-24 16:04:10.061,0.9929448243718288,0,0.2714974294574876,0.5630849281554859,1.149636186718294,0,0.06353786818782241,0.4434410833222356,1.037678810476441,0,0.6852387818122778,0.5955391474958731,0.6490365154130382,0,1.210235725704556,0.8471047949373898,0.6630320829978945,0,1.057562514525176,0.610310981837117,808.2783882783883,876.3736263736264,801.025641025641,786.1172161172161,781.2820512820513,864.2857142857143,-0.465393,0.003845,0.859558,0.157013,-0.800018,-0.366364,422502344.322344,328529304.029304,2543296.703297,82.142456,1,1,1,1,1,94.000000
2025-09-24 16:04:10.061,0.9929448243718288,0,0.2714974294574876,0.5630849281554859,1.149636186718294,0,0.06353786818782241,0.4434410833222356,1.037678810476441,0,0.6852387818122778,0.5955391474958731,0.6490365154130382,0,1.210235725704556,0.8471047949373898,0.6630320829978945,0,1.057562514525176,0.610310981837117,801.4285714285714,830.0366300366301,813.5164835164835,796.1904761904763,774.8351648351648,1072.197802197802,-0.465393,0.003845,0.859558,0.157013,-0.800018,-0.366364,422502344.322344,328529304.029304,2543296.703297,82.142456,1,1,1,1,1,94.000000
2025-09-24 16:04:10.061,0.9929448243718288,0,0.2714974294574876,0.5630849281554859,1.149636186718294,0,0.06353786818782241,0.4434410833222356,1.037678810476441,0,0.6852387818122778,0.5955391474958731,0.6490365154130382,0,1.210235725704556,0.8471047949373898,0.6630320829978945,0,1.057562514525176,0.610310981837117,806.2637362637363,744.6153846153846,827.2161172161173,799.4139194139194,819.96336996337,825.2014652014652,-0.465393,0.003845,0.859558,0.157013,-0.800018,-0.366364,422502344.322344,328529304.029304,2543296.703297,82.142456,1,1,1,1,1,94.000000
2025-09-24 16:04:10.061,0.9929448243718288,0,0.2714974294574876,0.5630849281554859,1.149636186718294,0,0.06353786818782241,0.4434410833222356,1.037678810476441,0,0.6852387818122778,0.5955391474958731,0.6490365154130382,0,1.210235725704556,0.8471047949373898,0.6630320829978945,0,1.057562514525176,0.610310981837117,811.0989010989011,809.0842490842491,830.4395604395604,789.7435897435897,856.6300366300367,650.3296703296703,-0.465393,0.003845,0.859558,0.157013,-0.800018,-0.366364,422502344.322344,328529304.029304,2543296.703297,82.142456,1,1,1,1,1,94.000000
2025-09-24 16:04:10.061,0.9929448243718288,0,0.2714974294574876,0.5630849281554859,1.149636186718294,0,0.06353786818782241,0.4434410833222356,1.037678810476441,0,0.6852387818122778,0.5955391474958731,0.6490365154130382,0,1.210235725704556,0.8471047949373898,0.6630320829978945,0,1.057562514525176,0.610310981837117,801.025641025641,876.3736263736264,803.040293040293,789.3406593406594,832.0512820512821,895.7142857142858,-0.465393,0.003845,0.859558,0.157013,-0.800018,-0.366364,422502344.322344,328529304.029304,2543296.703297,82.142456,1,1,1,1,1,94.000000
2025-09-24 16:04:10.062,0.9929448243718288,0,0.2714974294574876,0.5630849281554859,1.149636186718294,0,0.06353786818782241,0.4434410833222356,1.037678810476441,0,0.6852387818122778,0.5955391474958731,0.6490365154130382,0,1.210235725704556,0.8471047949373898,0.6630320829978945,0,1.057562514525176,0.610310981837117,770.4029304029305,758.7179487179487,774.8351648351648,770.8058608058608,795.7875457875458,809.8901098901099,-0.465393,0.003845,0.859558,0.157013,-0.800018,-0.366364,422502344.322344,328529304.029304,2543296.703297,82.142456,1,1,1,1,1,94.000000
2025-09-24 16:04:10.062,0.9929448243718288,0,0.2714974294574876,0.5630849281554859,1.149636186718294,0,0.06353786818782241,0.4434410833222356,1.037678810476441,0,0.6852387818122778,0.5955391474958731,0.6490365154130382,0,1.210235725704556,0.8471047949373898,0.6630320829978945,0,1.057562514525176,0.610310981837117,774.8351648351648,765.9706959706959,801.8315018315019,767.1794871794872,818.3516483516484,622.1245421245421,-0.465393,0.003845,0.859558,0.157013,-0.800018,-0.366364,422502344.322344,328529304.029304,2543296.703297,82.142456,1,1,1,1,1,94.000000
2025-09-24 16:04:10.062,0.9929448243718288,0,0.2714974294574876,0.5630849281554859,1.149636186718294,0,0.06353786818782241,0.4434410833222356,1.037678810476441,0,0.6852387818122778,0.5955391474958731,0.6490365154130382,0,1.210235725704556,0.8471047949373898,0.6630320829978945,0,1.057562514525176,0.610310981837117,798.2051282051282,821.1721611721612,814.7252747252747,792.1611721611722,802.6373626373627,679.3406593406594,-0.465393,0.003845,0.859558,0.157013,-0.800018,-0.366364,422502344.322344,328529304.029304,2543296.703297,82.142456,1,1,1,1,1,94.000000
2025-09-24 16:04:10.062,0.9929448243718288,0,0.2714974294574876,0.5630849281554859,1.149636186718294,0,0.06353786818782241,0.4434410833222356,1.037678810476441,0,0.6852387818122778,0.5955391474958731,0.6490365154130382,0,1.210235725704556,0.8471047949373898,0.6630320829978945,0,1.057562514525176,0.610310981837117,801.8315018315019,807.8754578754579,808.2783882783883,802.2344322344322,819.5604395604396,665.6410256410256,-0.465393,0.003845,0.859558,0.157013,-0.800018,-0.366364,422502344.322344,328529304.029304,2543296.703297,82.142456,1,1,1,1,1,94.000000
2025-09-24 16:04:10.062,0.9929448243718288,0,0.2714974294574876,0.5630849281554859,1.149636186718294,0,0.06353786818782241,0.4434410833222356,1.037678810476441,0,0.6852387818122778,0.5955391474958731,0.6490365154130382,0,1.210235725704556,0.8471047949373898,0.6630320829978945,0,1.057562514525176,0.610310981837117,785.3113553113553,858.2417582417582,806.6666666666667,799.0109890109891,821.978021978022,838.901098901099,-0.465393,0.003845,0.859558,0.157013,-0.800018,-0.366364,422502344.322344,328529304.029304,2543296.703297,82.142456,1,1,1,1,1,94.000000
2025-09-24 16:04:10.062,0.9929448243718288,0,0.2714974294574876,0.5630849281554859,1.149636186718294,0,0.06353786818782241,0.4434410833222356,1.037678810476441,0,0.6852387818122778,0.5955391474958731,0.6490365154130382,0,1.210235725704556,0.8471047949373898,0.6630320829978945,0,1.057562514525176,0.610310981837117,788.5347985347986,816.3369963369963,802.6373626373627,796.1904761904763,815.5311355311355,902.967032967033,-0.465393,0.003845,0.859558,0.157013,-0.800018,-0.366364,422502344.322344,328529304.029304,2543296.703297,82.142456,1,1,1,1,1,94.000000
2025-09-24 16:04:10.062,0.9929448243718288,0,0.2714974294574876,0.5630849281554859,1.149636186718294,0,0.06353786818782241,0.4434410833222356,1.037678810476441,0,0.6852387818122778,0.5955391474958731,0.6490365154130382,0,1.210235725704556,0.8471047949373898,0.6630320829978945,0,1.057562514525176,0.610310981837117,815.934065934066,787.7289377289378,801.4285714285714,801.025641025641,840.9157509157509,696.6666666666667,-0.465393,0.003845,0.859558,0.157013,-0.800018,-0.366364,422502344.322344,328529304.029304,2543296.703297,82.142456,1,1,1,1,1,94.000000
2025-09-24 16:04:10.062,0.9929448243718288,0,0.2714974294574876,0.5630849281554859,1.149636186718294,0,0.06353786818782241,0.4434410833222356,1.037678810476441,0,0.6852387818122778,0.5955391474958731,0.6490365154130382,0,1.210235725704556,0.8471047949373898,0.6630320829978945,0,1.057562514525176,0.610310981837117,815.934065934066,890.4761904761905,794.5787545787546,799.8168498168499,823.5897435897436,967.4358974358975,-0.465393,0.003845,0.859558,0.157013,-0.800018,-0.366364,422502344.322344,328529304.029304,2543296.703297,82.142456,1,1,1,1,1,94.000000
2025-09-24 16:04:10.062,0.9929448243718288,0,0.2714974294574876,0.5630849281554859,1.149636186718294,0,0.06353786818782241,0.4434410833222356,1.037678810476441,0,0.6852387818122778,0.5955391474958731,0.6490365154130382,0,1.210235725704556,0.8471047949373898,0.6630320829978945,0,1.057562514525176,0.610310981837117,797.8021978021978,822.3809523809524,791.7582417582418,785.3113553113553,813.5164835164835,1153.992673992674,-0.465393,0.003845,0.859558,0.157013,-0.800018,-0.366364,422502344.322344,328529304.029304,2543296.703297,82.142456,1,1,1,1,1,94.000000
2025-09-24 16:04:10.062,0.9929448243718288,0,0.2714974294574876,0.5630849281554859,1.149636186718294,0,0.06353786818782241,0.4434410833222356,1.037678810476441,0,0.6852387818122778,0.5955391474958731,0.6490365154130382,0,1.210235725704556,0.8471047949373898,0.6630320829978945,0,1.057562514525176,0.610310981837117,792.1611721611722,750.2564102564103,798.2051282051282,779.6703296703297,886.8498168498169,966.2271062271062,-0.465393,0.003845,0.859558,0.157013,-0.800018,-0.366364,422502344.322344,328529304.029304,2543296.703297,82.142456,1,1,1,1,1,94.000000
2025-09-24 16:04:10.062,0.9929448243718288,0,0.2714974294574876,0.5630849281554859,1.149636186718294,0,0.06353786818782241,0.4434410833222356,1.037678810476441,0,0.6852387818122778,0.5955391474958731,0.6490365154130382,0,1.210235725704556,0.8471047949373898,0.6630320829978945,0,1.057562514525176,0.610310981837117,796.996336996337,732.1245421245421,800.2197802197802,787.7289377289378,887.2527472527473,665.2380952380953,-0.465393,0.003845,0.859558,0.157013,-0.800018,-0.366364,422502344.322344,328529304.029304,2543296.703297,82.142456,1,1,1,1,1,94.000000
2025-09-24 16:04:10.062,0.9929448243718288,0,0.2714974294574876,0.5630849281554859,1.149636186718294,0,0.06353786818782241,0.4434410833222356,1.037678810476441,0,0.6852387818122778,0.5955391474958731,0.6490365154130382,0,1.210235725704556,0.8471047949373898,0.6630320829978945,0,1.057562514525176,0.610310981837117,801.8315018315019,791.7582417582418,790.952380952381,788.9377289377289,808.6813186813187,588.6813186813187,-0.465393,0.003845,0.859558,0.157013,-0.800018,-0.366364,422502344.322344,328529304.029304,2543296.703297,82.142456,1,1,1,1,1,94.000000
2025-09-24 16:04:10.063,0.9929448243718288,0,0.2714974294574876,0.5630849281554859,1.149636186718294,0,0.06353786818782241,0.4434410833222356,1.037678810476441,0,0.6852387818122778,0.5955391474958731,0.6490365154130382,0,1.210235725704556,0.8471047949373898,0.6630320829978945,0,1.057562514525176,0.610310981837117,811.5018315018315,829.6336996336996,790.952380952381,786.9230769230769,825.2014652014652,711.1721611721612,-0.465393,0.003845,0.859558,0.157013,-0.800018,-0.366364,422502344.322344,328529304.029304,2543296.703297,82.142456,1,1,1,1,1,94.000000
2025-09-24 16:04:10.063,0.9929448243718288,0,0.2714974294574876,0.5630849281554859,1.149636186718294,0,0.06353786818782241,0.4434410833222356,1.037678810476441,0,0.6852387818122778,0.5955391474958731,0.6490365154130382,0,1.210235725704556,0.8471047949373898,0.6630320829978945,0,1.057562514525176,0.610310981837117,815.1282051282052,810.6959706959707,810.6959706959707,796.996336996337,877.985347985348,764.3589743589744,-0.465393,0.003845,0.859558,0.157013,-0.800018,-0.366364,422502344.322344,328529304.029304,2543296.703297,82.142456,1,1,1,1,1,94.000000
2025-09-24 16:04:10.063,0.9929448243718288,0,0.2714974294574876,0.5630849281554859,1.149636186718294,0,0.06353786818782241,0.4434410833222356,1.037678810476441,0,0.6852387818122778,0.5955391474958731,0.6490365154130382,0,1.210235725704556,0.8471047949373898,0.6630320829978945,0,1.057562514525176,0.610310981837117,814.3223443223443,795.7875457875458,802.6373626373627,792.5641025641025,852.1978021978023,684.981684981685,-0.466736,0.012146,0.870911,-0.029907,-1.958923,0.456085,422502344.322344,328587326.007326,2548131.868132,82.142456,1,1,1,1,1,94.000000
2025-09-24 16:04:10.063,0.9929448243718288,0,0.2714974294574876,0.5630849281554859,1.149636186718294,0,0.06353786818782241,0.4434410833222356,1.037678810476441,0,0.6852387818122778,0.5955391474958731,0.6490365154130382,0,1.210235725704556,0.8471047949373898,0.6630320829978945,0,1.057562514525176,0.610310981837117,805.8608058608058,817.1428571428571,772.014652014652,776.4468864468864,828.8278388278388,677.7289377289377,-0.466736,0.012146,0.870911,-0.029907,-1.958923,0.456085,422502344.322344,328587326.007326,2548131.868132,82.142456,1,1,1,1,1,94.000000
2025-09-24 16:04:10.063,0.9929448243718288,0,0.2714974294574876,0.5630849281554859,1.149636186718294,0,0.06353786818782241,0.4434410833222356,1.037678810476441,0,0.6852387818122778,0.5955391474958731,0.6490365154130382,0,1.210235725704556,0.8471047949373898,0.6630320829978945,0,1.057562514525176,0.610310981837117,812.3076923076924,818.3516483516484,777.2527472527473,792.1611721611722,819.1575091575091,751.0622710622711,-0.466736,0.012146,0.870911,-0.029907,-1.958923,0.456085,422502344.322344,328587326.007326,2548131.868132,82.142456,1,1,1,1,1,94.000000
2025-09-24 16:04:10.063,0.9929448243718288,0,0.2714974294574876,0.5630849281554859,1.149636186718294,0,0.06353786818782241,0.4434410833222356,1.037678810476441,0,0.6852387818122778,0.5955391474958731,0.6490365154130382,0,1.210235725704556,0.8471047949373898,0.6630320829978945,0,1.057562514525176,0.610310981837117,814.7252747252747,779.6703296703297,776.8498168498169,809.4871794871796,821.978021978022,745.0183150183151,-0.466736,0.012146,0.870911,-0.029907,-1.958923,0.456085,422502344.322344,328587326.007326,2548131.868132,82.142456,1,1,1,1,1,94.000000
2025-09-24 16:04:10.063,0.9929448243718288,0,0.2714974294574876,0.5630849281554859,1.149636186718294,0,0.06353786818782241,0.4434410833222356,1.037678810476441,0,0.6852387818122778,0.5955391474958731,0.6490365154130382,0,1.210235725704556,0.8471047949373898,0.6630320829978945,0,1.057562514525176,0.610310981837117,794.1758241758242,770.4029304029305,765.5677655677656,797.3992673992674,807.4725274725275,691.4285714285714,-0.466736,0.012146,0.870911,-0.029907,-1.958923,0.456085,422502344.322344,328587326.007326,2548131.868132,82.142456,1,1,1,1,1,94.000000
2025-09-24 16:04:10.064,0.9929448243718288,0,0.2714974294574876,0.5630849281554859,1.149636186718294,0,0.06353786818782241,0.4434410833222356,1.037678810476441,0,0.6852387818122778,0.5955391474958731,0.6490365154130382,0,1.210235725704556,0.8471047949373898,0.6630320829978945,0,1.057562514525176,0.610310981837117,786.5201465201466,842.1245421245421,782.0879120879121,780.4761904761905,767.985347985348,906.996336996337,-0.466736,0.012146,0.870911,-0.029907,-1.958923,0.456085,422502344.322344,328587326.007326,2548131.868132,82.142456,1,1,1,1,1,94.000000
2025-09-24 16:04:10.064,0.9929448243718288,0,0.2714974294574876,0.5630849281554859,1.149636186718294,0,0.06353786818782241,0.4434410833222356,1.037678810476441,0,0.6852387818122778,0.5955391474958731,0.6490365154130382,0,1.210235725704556,0.8471047949373898,0.6630320829978945,0,1.057562514525176,0.610310981837117,792.5641025641025,857.4358974358975,807.0695970695971,784.9084249084249,831.6483516483516,1197.912087912088,-0.466736,0.012146,0.870911,-0.029907,-1.958923,0.456085,422502344.322344,328587326.007326,2548131.868132,82.142456,1,1,1,1,1,94.000000
2025-09-24 16:04:10.064,0.9929448243718288,0,0.2714974294574876,0.5630849281554859,1.149636186718294,0,0.06353786818782241,0.4434410833222356,1.037678810476441,0,0.6852387818122778,0.5955391474958731,0.6490365154130382,0,1.210235725704556,0.8471047949373898,0.6630320829978945,0,1.057562514525176,0.610310981837117,780.8791208791209,788.5347985347986,813.919413919414,780.8791208791209,895.7142857142858,1183.003663003663,-0.466736,0.012146,0.870911,-0.029907,-1.958923,0.456085,422502344.322344,328587326.007326,2548131.868132,82.142456,1,1,1,1,1,94.000000
2025-09-24 16:04:10.064,0.9929448243718288,0,0.2714974294574876,0.5630849281554859,1.149636186718294,0,0.06353786818782241,0.4434410833222356,1.037678810476441,0,0.6852387818122778,0.5955391474958731,0.6490365154130382,0,1.210235725704556,0.8471047949373898,0.6630320829978945,0,1.057562514525176,0.610310981837117,775.2380952380953,772.014652014652,816.7399267399268,780.8791208791209,852.6007326007326,969.8534798534798,-0.466736,0.012146,0.870911,-0.029907,-1.958923,0.456085,422502344.322344,328587326.007326,2548131.868132,82.142456,1,1,1,1,1,94.000000
2025-09-24 16:04:10.064,0.9929448243718288,0,0.2714974294574876,0.5630849281554859,1.149636186718294,0,0.06353786818782241,0.4434410833222356,1.037678810476441,0,0.6852387818122778,0.5955391474958731,0.6490365154130382,0,1.210235725704556,0.8471047949373898,0.6630320829978945,0,1.057562514525176,0.610310981837117,803.040293040293,815.934065934066,814.3223443223443,793.7728937728938,786.9230769230769,919.8901098901099,-0.466736,0.012146,0.870911,-0.029907,-1.958923,0.456085,422502344.322344,328587326.007326,2548131.868132,82.142456,1,1,1,1,1,94.000000
2025-09-24 16:04:10.064,0.9929448243718288,0,0.2714974294574876,0.5630849281554859,1.149636186718294,0,0.06353786818782241,0.4434410833222356,1.037678810476441,0,0.6852387818122778,0.5955391474958731,0.6490365154130382,0,1.210235725704556,0.8471047949373898,0.6630320829978945,0,1.057562514525176,0.610310981837117,806.2637362637363,766.3736263736264,801.4285714285714,796.1904761904763,835.2747252747253,809.4871794871796,-0.466736,0.012146,0.870911,-0.029907,-1.958923,0.456085,422502344.322344,328587326.007326,2548131.868132,82.142456,1,1,1,1,1,94.000000
2025-09-24 16:04:10.064,0.9929448243718288,0,0.2714974294574876,0.5630849281554859,1.149636186718294,0,0.06353786818782241,0.4434410833222356,1.037678810476441,0,0.6852387818122778,0.5955391474958731,0.6490365154130382,0,1.210235725704556,0.8471047949373898,0.6630320829978945,0,1.057562514525176,0.610310981837117,785.3113553113553,792.5641025641025,785.3113553113553,794.981684981685,893.6996336996338,755.0915750915751,-0.466736,0.012146,0.870911,-0.029907,-1.958923,0.456085,422502344.322344,328587326.007326,2548131.868132,82.142456,1,1,1,1,1,94.000000
2025-09-24 16:04:10.064,0.9929448243718288,0,0.2714974294574876,0.5630849281554859,1.149636186718294,0,0.06353786818782241,0.4434410833222356,1.037678810476441,0,0.6852387818122778,0.5955391474958731,0.6490365154130382,0,1.210235725704556,0.8471047949373898,0.6630320829978945,0,1.057562514525176,0.610310981837117,782.4908424908425,777.2527472527473,782.4908424908425,791.3553113553114,794.1758241758242,565.7142857142858,-0.467224,0.012207,0.871704,0.321503,-0.755157,0.321503,422502344.322344,328587326.007326,2548131.868132,82.142456,1,1,1,1,1,94.000000
2025-09-24 16:04:10.064,0.9929448243718288,0,0.2714974294574876,0.5630849281554859,1.149636186718294,0,0.06353786818782241,0.4434410833222356,1.037678810476441,0,0.6852387818122778,0.5955391474958731,0.6490365154130382,0,1.210235725704556,0.8471047949373898,0.6630320829978945,0,1.057562514525176,0.610310981837117,790.952380952381,817.1428571428571,791.7582417582418,787.7289377289378,762.3443223443223,514.1391941391942,-0.467224,0.012207,0.871704,0.321503,-0.755157,0.321503,422502344.322344,328587326.007326,2548131.868132,82.142456,1,1,1,1,1,94.000000
2025-09-24 16:04:10.065,0.9929448243718288,0,0.2714974294574876,0.5630849281554859,1.149636186718294,0,0.06353786818782241,0.4434410833222356,1.037678810476441,0,0.6852387818122778,0.5955391474958731,0.6490365154130382,0,1.210235725704556,0.8471047949373898,0.6630320829978945,0,1.057562514525176,0.610310981837117,791.7582417582418,844.5421245421246,795.7875457875458,790.1465201465202,828.4249084249085,732.5274725274726,-0.467224,0.012207,0.871704,0.321503,-0.755157,0.321503,422502344.322344,328587326.007326,2548131.868132,82.142456,1,1,1,1,1,94.000000
2025-09-24 16:04:10.065,0.9929448243718288,0,0.2714974294574876,0.5630849281554859,1.149636186718294,0,0.06353786818782241,0.4434410833222356,1.037678810476441,0,0.6852387818122778,0.5955391474958731,0.6490365154130382,0,1.210235725704556,0.8471047949373898,0.6630320829978945,0,1.057562514525176,0.610310981837117,786.5201465201466,781.2820512820513,796.5934065934066,793.3699633699634,825.2014652014652,734.1391941391942,-0.467224,0.012207,0.871704,0.321503,-0.755157,0.321503,422502344.322344,328587326.007326,2548131.868132,82.142456,1,1,1,1,1,94.000000
2025-09-24 16:04:10.065,0.9929448243718288,0,0.2714974294574876,0.5630849281554859,1.149636186718294,0,0.06353786818782241,0.4434410833222356,1.037678810476441,0,0.6852387818122778,0.5955391474958731,0.6490365154130382,0,1.210235725704556,0.8471047949373898,0.6630320829978945,0,1.057562514525176,0.610310981837117,788.5347985347986,779.6703296703297,800.6227106227107,803.040293040293,786.9230769230769,647.9120879120879,-0.467224,0.012207,0.871704,0.321503,-0.755157,0.321503,422502344.322344,328587326.007326,2548131.868132,82.142456,1,1,1,1,1,94.000000
2025-09-24 16:04:10.065,0.9929448243718288,0,0.2714974294574876,0.5630849281554859,1.149636186718294,0,0.06353786818782241,0.4434410833222356,1.037678810476441,0,0.6852387818122778,0.5955391474958731,0.6490365154130382,0,1.210235725704556,0.8471047949373898,0.6630320829978945,0,1.057562514525176,0.610310981837117,797.3992673992674,860.6593406593407,797.8021978021978,801.025641025641,792.1611721611722,917.4725274725275,-0.467224,0.012207,0.871704,0.321503,-0.755157,0.321503,422502344.322344,328587326.007326,2548131.868132,82.142456,1,1,1,1,1,94.000000
2025-09-24 16:04:10.065,0.9929448243718288,0,0.2714974294574876,0.5630849281554859,1.149636186718294,0,0.06353786818782241,0.4434410833222356,1.037678810476441,0,0.6852387818122778,0.5955391474958731,0.6490365154130382,0,1.210235725704556,0.8471047949373898,0.6630320829978945,0,1.057562514525176,0.610310981837117,806.6666666666667,838.0952380952381,772.8205128205128,793.3699633699634,851.3919413919414,1228.534798534798,-0.467224,0.012207,0.871704,0.321503,-0.755157,0.321503,422502344.322344,328587326.007326,2548131.868132,82.142456,1,1,1,1,1,94.000000
2025-09-24 16:04:10.065,0.9929448243718288,0,0.2714974294574876,0.5630849281554859,1.149636186718294,0,0.06353786818782241,0.4434410833222356,1.037678810476441,0,0.6852387818122778,0.5955391474958731,0.6490365154130382,0,1.210235725704556,0.8471047949373898,0.6630320829978945,0,1.057562514525176,0.610310981837117,812.3076923076924,745.4212454212454,773.2234432234433,794.1758241758242,872.3443223443223,976.7032967032967,-0.467224,0.012207,0.871704,0.321503,-0.755157,0.321503,422502344.322344,328587326.007326,2548131.868132,82.142456,1,1,1,1,1,94.000000
2025-09-24 16:04:10.065,0.9929448243718288,0,0.2714974294574876,0.5630849281554859,1.149636186718294,0,0.06353786818782241,0.4434410833222356,1.037678810476441,0,0.6852387818122778,0.5955391474958731,0.6490365154130382,0,1.210235725704556,0.8471047949373898,0.6630320829978945,0,1.057562514525176,0.610310981837117,818.7545787545788,771.2087912087912,799.8168498168499,791.7582417582418,819.5604395604396,675.3113553113553,-0.467224,0.012207,0.871704,0.321503,-0.755157,0.321503,422502344.322344,328587326.007326,2548131.868132,82.142456,1,1,1,1,1,94.000000
2025-09-24 16:04:10.065,0.9929448243718288,0,0.2714974294574876,0.5630849281554859,1.149636186718294,0,0.06353786818782241,0.4434410833222356,1.037678810476441,0,0.6852387818122778,0.5955391474958731,0.6490365154130382,0,1.210235725704556,0.8471047949373898,0.6630320829978945,0,1.057562514525176,0.610310981837117,830.0366300366301,857.8388278388279,799.8168498168499,796.1904761904763,784.5054945054945,834.4688644688645,-0.467224,0.012207,0.871704,0.321503,-0.755157,0.321503,422502344.322344,328587326.007326,2548131.868132,82.142456,1,1,1,1,1,94.000000
2025-09-24 16:04:10.065,0.9929448243718288,0,0.2714974294574876,0.5630849281554859,1.149636186718294,0,0.06353786818782241,0.4434410833222356,1.037678810476441,0,0.6852387818122778,0.5955391474958731,0.6490365154130382,0,1.210235725704556,0.8471047949373898,0.6630320829978945,0,1.057562514525176,0.610310981837117,821.978021978022,822.3809523809524,787.3260073260074,798.2051282051282,853.0036630036631,898.5347985347986,-0.467224,0.012207,0.871704,0.321503,-0.755157,0.321503,422502344.322344,328587326.007326,2548131.868132,82.142456,1,1,1,1,1,94.000000
2025-09-24 16:04:10.065,0.9929448243718288,0,0.2714974294574876,0.5630849281554859,1.149636186718294,0,0.06353786818782241,0.4434410833222356,1.037678810476441,0,0.6852387818122778,0.5955391474958731,0.6490365154130382,0,1.210235725704556,0.8471047949373898,0.6630320829978945,0,1.057562514525176,0.610310981837117,805.4578754578755,773.2234432234433,781.2820512820513,790.1465201465202,861.0622710622711,736.1538461538462,-0.467224,0.012207,0.871704,0.321503,-0.755157,0.321503,422502344.322344,328587326.007326,2548131.868132,82.142456,1,1,1,1,1,94.000000
2025-09-24 16:04:10.066,0.9929448243718288,0,0.2714974294574876,0.5630849281554859,1.149636186718294,0,0.06353786818782241,0.4434410833222356,1.037678810476441,0,0.6852387818122778,0.5955391474958731,0.6490365154130382,0,1.210235725704556,0.8471047949373898,0.6630320829978945,0,1.057562514525176,0.610310981837117,796.1904761904763,755.8974358974359,786.5201465201466,776.0439560439561,815.934065934066,584.2490842490843,-0.466431,0.007874,0.864441,-0.186920,-0.366364,-0.074768,422502344.322344,328876630.036630,2556996.336996,82.142456,1,1,1,1,1,94.000000
2025-09-24 16:04:10.066,0.9929448243718288,0,0.2714974294574876,0.5630849281554859,1.149636186718294,0,0.06353786818782241,0.4434410833222356,1.037678810476441,0,0.6852387818122778,0.5955391474958731,0.6490365154130382,0,1.210235725704556,0.8471047949373898,0.6630320829978945,0,1.057562514525176,0.610310981837117,794.5787545787546,817.1428571428571,802.2344322344322,780.8791208791209,840.9157509157509,621.7216117216118,-0.466431,0.007874,0.864441,-0.186920,-0.366364,-0.074768,422502344.322344,328876630.036630,2556996.336996,82.142456,1,1,1,1,1,94.000000
2025-09-24 16:04:10.066,0.9929448243718288,0,0.2714974294574876,0.5630849281554859,1.149636186718294,0,0.06353786818782241,0.4434410833222356,1.037678810476441,0,0.6852387818122778,0.5955391474958731,0.6490365154130382,0,1.210235725704556,0.8471047949373898,0.6630320829978945,0,1.057562514525176,0.610310981837117,801.4285714285714,838.901098901099,803.040293040293,788.1318681318681,912.6373626373627,807.0695970695971,-0.466431,0.007874,0.864441,-0.186920,-0.366364,-0.074768,422502344.322344,328876630.036630,2556996.336996,82.142456,1,1,1,1,1,94.000000
2025-09-24 16:04:10.066,0.9929448243718288,0,0.2714974294574876,0.5630849281554859,1.149636186718294,0,0.06353786818782241,0.4434410833222356,1.037678810476441,0,0.6852387818122778,0.5955391474958731,0.6490365154130382,0,1.210235725704556,0.8471047949373898,0.6630320829978945,0,1.057562514525176,0.610310981837117,790.952380952381,783.6996336996338,792.967032967033,778.4615384615385,908.6080586080586,800.6227106227107,-0.466431,0.007874,0.864441,-0.186920,-0.366364,-0.074768,422502344.322344,328876630.036630,2556996.336996,82.142456,1,1,1,1,1,94.000000
2025-09-24 16:04:10.066,0.9929448243718288,0,0.2714974294574876,0.5630849281554859,1.149636186718294,0,0.06353786818782241,0.4434410833222356,1.037678810476441,0,0.6852387818122778,0.5955391474958731,0.6490365154130382,0,1.210235725704556,0.8471047949373898,0.6630320829978945,0,1.057562514525176,0.610310981837117,798.2051282051282,783.6996336996338,796.996336996337,777.2527472527473,865.0915750915751,698.6813186813187,-0.466431,0.007874,0.864441,-0.186920,-0.366364,-0.074768,422502344.322344,328876630.036630,2556996.336996,82.142456,1,1,1,1,1,94.000000
2025-09-24 16:04:10.066,0.9929448243718288,0,0.2714974294574876,0.5630849281554859,1.149636186718294,0,0.06353786818782241,0.4434410833222356,1.037678810476441,0,0.6852387818122778,0.5955391474958731,0.6490365154130382,0,1.210235725704556,0.8471047949373898,0.6630320829978945,0,1.057562514525176,0.610310981837117,813.1135531135532,859.4505494505495,786.9230769230769,788.1318681318681,865.4945054945056,937.2161172161173,-0.466431,0.007874,0.864441,-0.186920,-0.366364,-0.074768,422502344.322344,328876630.036630,2556996.336996,82.142456,1,1,1,1,1,94.000000
2025-09-24 16:04:10.066,0.9929448243718288,0,0.2714974294574876,0.5630849281554859,1.149636186718294,0,0.06353786818782241,0.4434410833222356,1.037678810476441,0,0.6852387818122778,0.5955391474958731,0.6490365154130382,0,1.210235725704556,0.8471047949373898,0.6630320829978945,0,1.057562514525176,0.610310981837117,799.8168498168499,855.0183150183151,762.3443223443223,785.7142857142858,870.3296703296703,1312.344322344322,-0.466431,0.007874,0.864441,-0.186920,-0.366364,-0.074768,422502344.322344,328876630.036630,2556996.336996,82.142456,1,1,1,1,1,94.000000
2025-09-24 16:04:10.066,0.9929448243718288,0,0.1773857017227869,0.5630849281554859,1.149636186718294,0,0.04485193606867611,0.4434410833222356,1.037678810476441,0,0.6441999702010427,0.5955391474958731,0.6490365154130382,0,1.21539775908169,0.8471047949373898,0.6630320829978945,0,1.04102456553575,0.610310981837117,807.8754578754579,716.007326007326,761.5384615384615,774.8351648351648,880.8058608058608,1097.985347985348,-0.466431,0.007874,0.864441,-0.186920,-0.366364,-0.074768,422502344.322344,328876630.036630,2556996.336996,82.142456,1,1,1,1,1,94.000000
2025-09-24 16:04:10.067,0.9929448243718288,0,0.1773857017227869,0.5630849281554859,1.149636186718294,0,0.04485193606867611,0.4434410833222356,1.037678810476441,0,0.6441999702010427,0.5955391474958731,0.6490365154130382,0,1.21539775908169,0.8471047949373898,0.6630320829978945,0,1.04102456553575,0.610310981837117,800.2197802197802,718.4249084249085,775.6410256410256,780.0732600732601,877.5824175824176,707.948717948718,-0.466431,0.007874,0.864441,-0.186920,-0.366364,-0.074768,422502344.322344,328876630.036630,2556996.336996,82.142456,1,1,1,1,1,94.000000
2025-09-24 16:04:10.067,0.9929448243718288,0,0.1773857017227869,0.5630849281554859,1.149636186718294,0,0.04485193606867611,0.4434410833222356,1.037678810476441,0,0.6441999702010427,0.5955391474958731,0.6490365154130382,0,1.21539775908169,0.8471047949373898,0.6630320829978945,0,1.04102456553575,0.610310981837117,779.2673992673992,859.8534798534798,793.3699633699634,782.0879120879121,844.5421245421246,915.8608058608058,-0.466431,0.007874,0.864441,-0.186920,-0.366364,-0.074768,422502344.322344,328876630.036630,2556996.336996,82.142456,1,1,1,1,1,94.000000
2025-09-24 16:04:10.067,0.9929448243718288,0,0.1773857017227869,0.5630849281554859,1.149636186718294,0,0.04485193606867611,0.4434410833222356,1.037678810476441,0,0.6441999702010427,0.5955391474958731,0.6490365154130382,0,1.21539775908169,0.8471047949373898,0.6630320829978945,0,1.04102456553575,0.610310981837117,790.5494505494506,798.6080586080586,815.934065934066,794.1758241758242,919.0842490842491,979.1208791208792,-0.466431,0.007874,0.864441,-0.186920,-0.366364,-0.074768,422502344.322344,328876630.036630,2556996.336996,82.142456,1,1,1,1,1,94.000000
2025-09-24 16:04:10.067,0.9929448243718288,0,0.1773857017227869,0.5630849281554859,1.149636186718294,0,0.04485193606867611,0.4434410833222356,1.037678810476441,0,0.6441999702010427,0.5955391474958731,0.6490365154130382,0,1.21539775908169,0.8471047949373898,0.6630320829978945,0,1.04102456553575,0.610310981837117,793.3699633699634,765.9706959706959,823.5897435897436,804.6520146520147,937.2161172161173,747.8388278388279,-0.466431,0.007874,0.864441,-0.186920,-0.366364,-0.074768,422502344.322344,328876630.036630,2556996.336996,82.142456,1,1,1,1,1,94.000000
2025-09-24 16:04:10.067,0.9929448243718288,0,0.1773857017227869,0.5630849281554859,1.149636186718294,0,0.04485193606867611,0.4434410833222356,1.037678810476441,0,0.6441999702010427,0.5955391474958731,0.6490365154130382,0,1.21539775908169,0.8471047949373898,0.6630320829978945,0,1.04102456553575,0.610310981837117,788.9377289377289,837.2893772893773,814.3223443223443,799.0109890109891,835.6776556776557,807.8754578754579,-0.464905,0.007812,0.863953,0.171967,-1.764526,0.127106,422502344.322344,328876630.036630,2556996.336996,82.142456,1,1,1,1,1,94.000000
2025-09-24 16:04:10.067,0.9929448243718288,0,0.1773857017227869,0.5630849281554859,1.149636186718294,0,0.04485193606867611,0.4434410833222356,1.037678810476441,0,0.6441999702010427,0.5955391474958731,0.6490365154130382,0,1.21539775908169,0.8471047949373898,0.6630320829978945,0,1.04102456553575,0.610310981837117,801.4285714285714,836.0805860805862,804.2490842490843,803.8461538461539,864.2857142857143,951.7216117216118,-0.464905,0.007812,0.863953,0.171967,-1.764526,0.127106,422502344.322344,328876630.036630,2556996.336996,82.142456,1,1,1,1,1,94.000000
2025-09-24 16:04:10.067,0.9929448243718288,0,0.1773857017227869,0.5630849281554859,1.149636186718294,0,0.04485193606867611,0.4434410833222356,1.037678810476441,0,0.6441999702010427,0.5955391474958731,0.6490365154130382,0,1.21539775908169,0.8471047949373898,0.6630320829978945,0,1.04102456553575,0.610310981837117,805.8608058608058,794.1758241758242,799.8168498168499,811.0989010989011,955.7509157509157,881.6117216117217,-0.464905,0.007812,0.863953,0.171967,-1.764526,0.127106,422502344.322344,328876630.036630,2556996.336996,82.142456,1,1,1,1,1,94.000000
2025-09-24 16:04:10.067,0.9929448243718288,0,0.1773857017227869,0.5630849281554859,1.149636186718294,0,0.04485193606867611,0.4434410833222356,1.037678810476441,0,0.6441999702010427,0.5955391474958731,0.6490365154130382,0,1.21539775908169,0.8471047949373898,0.6630320829978945,0,1.04102456553575,0.610310981837117,811.9047619047619,789.7435897435897,794.5787545787546,803.8461538461539,939.2307692307693,782.4908424908425,-0.464905,0.007812,0.863953,0.171967,-1.764526,0.127106,422502344.322344,328876630.036630,2556996.336996,82.142456,1,1,1,1,1,94.000000
2025-09-24 16:04:10.067,0.9929448243718288,0,0.1773857017227869,0.5630849281554859,1.149636186718294,0,0.04485193606867611,0.4434410833222356,1.037678810476441,0,0.6441999702010427,0.5955391474958731,0.6490365154130382,0,1.21539775908169,0.8471047949373898,0.6630320829978945,0,1.04102456553575,0.610310981837117,810.6959706959707,793.3699633699634,792.1611721611722,803.4432234432235,885.6410256410256,766.7765567765568,-0.464905,0.007812,0.863953,0.171967,-1.764526,0.127106,422502344.322344,328876630.036630,2556996.336996,82.142456,1,1,1,1,1,94.000000
2025-09-24 16:04:10.067,0.9929448243718288,0,0.1773857017227869,0.5630849281554859,1.149636186718294,0,0.04485193606867611,0.4434410833222356,1.037678810476441,0,0.6441999702010427,0.5955391474958731,0.6490365154130382,0,1.21539775908169,0.8471047949373898,0.6630320829978945,0,1.04102456553575,0.610310981837117,805.0549450549451,831.6483516483516,795.3846153846154,796.1904761904763,838.0952380952381,965.8241758241759,-0.464905,0.007812,0.863953,0.171967,-1.764526,0.127106,422502344.322344,328876630.036630,2556996.336996,82.142456,1,1,1,1,1,94.000000
2025-09-24 16:04:10.068,0.9929448243718288,0,0.1773857017227869,0.5630849281554859,1.149636186718294,0,0.04485193606867611,0.4434410833222356,1.037678810476441,0,0.6441999702010427,0.5955391474958731,0.6490365154130382,0,1.21539775908169,0.8471047949373898,0.6630320829978945,0,1.04102456553575,0.610310981837117,813.5164835164835,827.6190476190476,799.4139194139194,799.8168498168499,783.2967032967033,1138.681318681319,-0.464905,0.007812,0.863953,0.171967,-1.764526,0.127106,422502344.322344,328876630.036630,2556996.336996,82.142456,1,1,1,1,1,94.000000
2025-09-24 16:04:10.068,0.9929448243718288,0,0.1773857017227869,0.5630849281554859,1.149636186718294,0,0.04485193606867611,0.4434410833222356,1.037678810476441,0,0.6441999702010427,0.5955391474958731,0.6490365154130382,0,1.21539775908169,0.8471047949373898,0.6630320829978945,0,1.04102456553575,0.610310981837117,817.1428571428571,763.1501831501831,785.3113553113553,812.3076923076924,812.3076923076924,976.3003663003664,-0.464905,0.007812,0.863953,0.171967,-1.764526,0.127106,422502344.322344,328876630.036630,2556996.336996,82.142456,1,1,1,1,1,94.000000
2025-09-24 16:04:10.068,0.9929448243718288,0,0.1773857017227869,0.5630849281554859,1.149636186718294,0,0.04485193606867611,0.4434410833222356,1.037678810476441,0,0.6441999702010427,0.5955391474958731,0.6490365154130382,0,1.21539775908169,0.8471047949373898,0.6630320829978945,0,1.04102456553575,0.610310981837117,815.5311355311355,726.8864468864469,774.4322344322345,800.2197802197802,817.1428571428571,552.014652014652,-0.464905,0.007812,0.863953,0.171967,-1.764526,0.127106,422502344.322344,328876630.036630,2556996.336996,82.142456,1,1,1,1,1,94.000000
2025-09-24 16:04:10.068,0.9929448243718288,0,0.1773857017227869,0.5630849281554859,1.149636186718294,0,0.04485193606867611,0.4434410833222356,1.037678810476441,0,0.6441999702010427,0.5955391474958731,0.6490365154130382,0,1.21539775908169,0.8471047949373898,0.6630320829978945,0,1.04102456553575,0.610310981837117,811.9047619047619,834.8717948717949,794.981684981685,803.040293040293,807.4725274725275,518.974358974359,-0.464905,0.007812,0.863953,0.171967,-1.764526,0.127106,422502344.322344,328876630.036630,2556996.336996,82.142456,1,1,1,1,1,94.000000
2025-09-24 16:04:10.068,0.9929448243718288,0,0.1773857017227869,0.5630849281554859,1.149636186718294,0,0.04485193606867611,0.4434410833222356,1.037678810476441,0,0.6441999702010427,0.5955391474958731,0.6490365154130382,0,1.21539775908169,0.8471047949373898,0.6630320829978945,0,1.04102456553575,0.610310981837117,793.7728937728938,850.5860805860806,800.2197802197802,800.2197802197802,894.908424908425,733.7362637362637,-0.464905,0.007812,0.863953,0.171967,-1.764526,0.127106,422502344.322344,328876630.036630,2556996.336996,82.142456,1,1,1,1,1,94.000000
2025-09-24 16:04:10.068,0.9929448243718288,0,0.1773857017227869,0.5630849281554859,1.149636186718294,0,0.04485193606867611,0.4434410833222356,1.037678810476441,0,0.6441999702010427,0.5955391474958731,0.6490365154130382,0,1.21539775908169,0.8471047949373898,0.6630320829978945,0,1.04102456553575,0.610310981837117,784.1025641025641,809.8901098901099,785.7142857142858,789.3406593406594,914.6520146520147,772.8205128205128,-0.464905,0.007812,0.863953,0.171967,-1.764526,0.127106,422502344.322344,328876630.036630,2556996.336996,82.142456,1,1,1,1,1,94.000000
2025-09-24 16:04:10.110,0.9929448243718288,0,0.1773857017227869,0.5630849281554859,1.149636186718294,0,0.04485193606867611,0.4434410833222356,1.037678810476441,0,0.6441999702010427,0.5955391474958731,0.6490365154130382,0,1.21539775908169,0.8471047949373898,0.6630320829978945,0,1.04102456553575,0.610310981837117,787.3260073260074,767.1794871794872,784.5054945054945,788.1318681318681,859.4505494505495,646.3003663003664,-0.464905,0.007812,0.863953,0.171967,-1.764526,0.127106,422502344.322344,329097435.897436,2548131.868132,82.142456,1,1,1,1,1,94.000000
2025-09-24 16:04:10.111,0.9929448243718288,0,0.1773857017227869,0.5630849281554859,1.149636186718294,0,0.04485193606867611,0.4434410833222356,1.037678810476441,0,0.6441999702010427,0.5955391474958731,0.6490365154130382,0,1.21539775908169,0.8471047949373898,0.6630320829978945,0,1.04102456553575,0.610310981837117,797.3992673992674,789.3406593406594,790.952380952381,778.0586080586081,842.5274725274726,637.032967032967,-0.464905,0.007812,0.863953,0.171967,-1.764526,0.127106,422502344.322344,329097435.897436,2548131.868132,82.142456,1,1,1,1,1,94.000000
2025-09-24 16:04:10.111,0.9929448243718288,0,0.1773857017227869,0.5630849281554859,1.149636186718294,0,0.04485193606867611,0.4434410833222356,1.037678810476441,0,0.6441999702010427,0.5955391474958731,0.6490365154130382,0,1.21539775908169,0.8471047949373898,0.6630320829978945,0,1.04102456553575,0.610310981837117,813.5164835164835,819.1575091575091,799.8168498168499,792.1611721611722,882.4175824175825,764.7619047619048,-0.464905,0.007812,0.863953,0.171967,-1.764526,0.127106,422502344.322344,329097435.897436,2548131.868132,82.142456,1,1,1,1,1,94.000000
2025-09-24 16:04:10.111,0.9929448243718288,0,0.1773857017227869,0.5630849281554859,1.149636186718294,0,0.04485193606867611,0.4434410833222356,1.037678810476441,0,0.6441999702010427,0.5955391474958731,0.6490365154130382,0,1.21539775908169,0.8471047949373898,0.6630320829978945,0,1.04102456553575,0.610310981837117,818.3516483516484,809.8901098901099,803.8461538461539,792.967032967033,847.7655677655678,760.7326007326008,-0.464905,0.007812,0.863953,0.171967,-1.764526,0.127106,422502344.322344,329097435.897436,2548131.868132,82.142456,1,1,1,1,1,94.000000
2025-09-24 16:04:10.111,0.9929448243718288,0,0.1773857017227869,0.5630849281554859,1.149636186718294,0,0.04485193606867611,0.4434410833222356,1.037678810476441,0,0.6441999702010427,0.5955391474958731,0.6490365154130382,0,1.21539775908169,0.8471047949373898,0.6630320829978945,0,1.04102456553575,0.610310981837117,804.6520146520147,836.4835164835165,787.3260073260074,778.0586080586081,805.0549450549451,869.5238095238095,-0.464905,0.007812,0.863953,0.171967,-1.764526,0.127106,422502344.322344,329097435.897436,2548131.868132,82.142456,1,1,1,1,1,94.000000
2025-09-24 16:04:10.111,0.9929448243718288,0,0.1773857017227869,0.5630849281554859,1.149636186718294,0,0.04485193606867611,0.4434410833222356,1.037678810476441,0,0.6441999702010427,0.5955391474958731,0.6490365154130382,0,1.21539775908169,0.8471047949373898,0.6630320829978945,0,1.04102456553575,0.610310981837117,804.6520146520147,828.021978021978,785.3113553113553,785.3113553113553,820.7692307692308,1044.395604395604,-0.464905,0.007812,0.863953,0.171967,-1.764526,0.127106,422502344.322344,329097435.897436,2548131.868132,82.142456,1,1,1,1,1,94.000000
2025-09-24 16:04:10.111,0.9929448243718288,0,0.1773857017227869,0.5630849281554859,1.149636186718294,0,0.04485193606867611,0.4434410833222356,1.037678810476441,0,0.6441999702010427,0.5955391474958731,0.6490365154130382,0,1.21539775908169,0.8471047949373898,0.6630320829978945,0,1.04102456553575,0.610310981837117,814.7252747252747,818.7545787545788,799.0109890109891,785.3113553113553,755.0915750915751,1214.835164835165,-0.464905,0.007812,0.863953,0.171967,-1.764526,0.127106,422502344.322344,329097435.897436,2548131.868132,82.142456,1,1,1,1,1,94.000000
2025-09-24 16:04:10.111,0.9929448243718288,0,0.1773857017227869,0.5630849281554859,1.149636186718294,0,0.04485193606867611,0.4434410833222356,1.037678810476441,0,0.6441999702010427,0.5955391474958731,0.6490365154130382,0,1.21539775908169,0.8471047949373898,0.6630320829978945,0,1.04102456553575,0.610310981837117,806.2637362637363,778.4615384615385,804.2490842490843,794.1758241758242,893.2967032967033,1227.326007326007,-0.464905,0.007812,0.863953,0.171967,-1.764526,0.127106,422502344.322344,329097435.897436,2548131.868132,82.142456,1,1,1,1,1,94.000000
2025-09-24 16:04:10.111,0.9929448243718288,0,0.1773857017227869,0.5630849281554859,1.149636186718294,0,0.04485193606867611,0.4434410833222356,1.037678810476441,0,0.6441999702010427,0.5955391474958731,0.6490365154130382,0,1.21539775908169,0.8471047949373898,0.6630320829978945,0,1.04102456553575,0.610310981837117,802.2344322344322,774.4322344322345,802.6373626373627,785.7142857142858,1090.732600732601,1021.428571428571,-0.464905,0.007812,0.863953,0.171967,-1.764526,0.127106,422502344.322344,329097435.897436,2548131.868132,82.142456,1,1,1,1,1,94.000000
2025-09-24 16:04:10.111,0.9929448243718288,0,0.1247886863729134,0.5630849281554859,1.149636186718294,0,0.008850378128612705,0.4434410833222356,1.037678810476441,0,0.6216618967936062,0.5955391474958731,0.6490365154130382,0,1.219408573996604,0.8471047949373898,0.6630320829978945,0,1.029304046215605,0.610310981837117,802.6373626373627,873.1501831501831,795.3846153846154,775.6410256410256,1085.897435897436,1285.347985347985,-0.464905,0.007812,0.863953,0.171967,-1.764526,0.127106,422502344.322344,329097435.897436,2548131.868132,82.142456,1,1,1,1,1,94.000000
2025-09-24 16:04:10.112,0.9929448243718288,0,0.1247886863729134,0.5630849281554859,1.149636186718294,0,0.008850378128612705,0.4434410833222356,1.037678810476441,0,0.6216618967936062,0.5955391474958731,0.6490365154130382,0,1.219408573996604,0.8471047949373898,0.6630320829978945,0,1.029304046215605,0.610310981837117,800.2197802197802,788.1318681318681,797.3992673992674,791.3553113553114,1071.794871794872,1371.172161172161,-0.464905,0.007812,0.863953,0.171967,-1.764526,0.127106,422502344.322344,329097435.897436,2548131.868132,82.142456,1,1,1,1,1,94.000000
2025-09-24 16:04:10.112,0.9929448243718288,0,0.1247886863729134,0.5630849281554859,1.149636186718294,0,0.008850378128612705,0.4434410833222356,1.037678810476441,0,0.6216618967936062,0.5955391474958731,0.6490365154130382,0,1.219408573996604,0.8471047949373898,0.6630320829978945,0,1.029304046215605,0.610310981837117,804.6520146520147,734.9450549450549,805.8608058608058,796.1904761904763,1089.120879120879,1086.300366300366,-0.464905,0.007812,0.863953,0.171967,-1.764526,0.127106,422502344.322344,329097435.897436,2548131.868132,82.142456,1,1,1,1,1,94.000000
2025-09-24 16:04:10.175,0.9929448243718288,0,0.1247886863729134,0.5630849281554859,1.149636186718294,0,0.008850378128612705,0.4434410833222356,1.037678810476441,0,0.6216618967936062,0.5955391474958731,0.6490365154130382,0,1.219408573996604,0.8471047949373898,0.6630320829978945,0,1.029304046215605,0.610310981837117,808.6813186813187,783.2967032967033,804.2490842490843,797.8021978021978,1082.673992673993,1087.912087912088,-0.464233,0.013977,0.869141,0.142059,-2.512207,0.530853,422502344.322344,329097435.897436,2548131.868132,82.142456,1,1,1,1,1,94.000000
2025-09-24 16:04:10.175,0.9929448243718288,0,0.1247886863729134,0.5630849281554859,1.149636186718294,0,0.008850378128612705,0.4434410833222356,1.037678810476441,0,0.6216618967936062,0.5955391474958731,0.6490365154130382,0,1.219408573996604,0.8471047949373898,0.6630320829978945,0,1.029304046215605,0.610310981837117,801.4285714285714,792.1611721611722,798.6080586080586,805.8608058608058,1096.776556776557,1070.586080586081,-0.464233,0.013977,0.869141,0.142059,-2.512207,0.530853,422502344.322344,329097435.897436,2548131.868132,82.142456,1,1,1,1,1,94.000000
2025-09-24 16:04:10.175,0.9929448243718288,0,0.1247886863729134,0.5630849281554859,1.149636186718294,0,0.008850378128612705,0.4434410833222356,1.037678810476441,0,0.6216618967936062,0.5955391474958731,0.6490365154130382,0,1.219408573996604,0.8471047949373898,0.6630320829978945,0,1.029304046215605,0.610310981837117,805.0549450549451,817.948717948718,798.2051282051282,811.5018315018315,1130.622710622711,1080.25641025641,-0.464233,0.013977,0.869141,0.142059,-2.512207,0.530853,422502344.322344,329097435.897436,2548131.868132,82.142456,1,1,1,1,1,94.000000
2025-09-24 16:04:10.175,0.9929448243718288,0,0.1247886863729134,0.5630849281554859,1.149636186718294,0,0.008850378128612705,0.4434410833222356,1.037678810476441,0,0.6216618967936062,0.5955391474958731,0.6490365154130382,0,1.219408573996604,0.8471047949373898,0.6630320829978945,0,1.029304046215605,0.610310981837117,816.3369963369963,796.1904761904763,791.7582417582418,816.7399267399268,1070.989010989011,1031.501831501831,-0.464233,0.013977,0.869141,0.142059,-2.512207,0.530853,422502344.322344,329097435.897436,2548131.868132,82.142456,1,1,1,1,1,94.000000
2025-09-24 16:04:10.176,0.9929448243718288,0,0.1247886863729134,0.5630849281554859,1.149636186718294,0,0.008850378128612705,0.4434410833222356,1.037678810476441,0,0.6216618967936062,0.5955391474958731,0.6490365154130382,0,1.219408573996604,0.8471047949373898,0.6630320829978945,0,1.029304046215605,0.610310981837117,807.4725274725275,806.2637362637363,776.0439560439561,811.0989010989011,1045.604395604396,892.0879120879121,-0.464233,0.013977,0.869141,0.142059,-2.512207,0.530853,422502344.322344,329097435.897436,2548131.868132,82.142456,1,1,1,1,1,94.000000
2025-09-24 16:04:10.176,0.9929448243718288,0,0.1247886863729134,0.5630849281554859,1.149636186718294,0,0.008850378128612705,0.4434410833222356,1.037678810476441,0,0.6216618967936062,0.5955391474958731,0.6490365154130382,0,1.219408573996604,0.8471047949373898,0.6630320829978945,0,1.029304046215605,0.610310981837117,803.8461538461539,911.4285714285714,787.3260073260074,807.0695970695971,1031.098901098901,1273.663003663004,-0.464233,0.013977,0.869141,0.142059,-2.512207,0.530853,422502344.322344,329097435.897436,2548131.868132,82.142456,1,1,1,1,1,94.000000
2025-09-24 16:04:10.176,0.9929448243718288,0,0.1247886863729134,0.5630849281554859,1.149636186718294,0,0.008850378128612705,0.4434410833222356,1.037678810476441,0,0.6216618967936062,0.5955391474958731,0.6490365154130382,0,1.219408573996604,0.8471047949373898,0.6630320829978945,0,1.029304046215605,0.610310981837117,803.8461538461539,812.3076923076924,804.6520146520147,807.4725274725275,1037.142857142857,1517.435897435897,-0.464233,0.013977,0.869141,0.142059,-2.512207,0.530853,422502344.322344,329097435.897436,2548131.868132,82.142456,1,1,1,1,1,94.000000
2025-09-24 16:04:10.176,0.9929448243718288,0,0.1247886863729134,0.5630849281554859,1.149636186718294,0,0.008850378128612705,0.4434410833222356,1.037678810476441,0,0.6216618967936062,0.5955391474958731,0.6490365154130382,0,1.219408573996604,0.8471047949373898,0.6630320829978945,0,1.029304046215605,0.610310981837117,800.2197802197802,751.0622710622711,813.1135531135532,808.2783882783883,1049.6336996337,1361.501831501831,-0.464233,0.013977,0.869141,0.142059,-2.512207,0.530853,422502344.322344,329097435.897436,2548131.868132,82.142456,1,1,1,1,1,94.000000
2025-09-24 16:04:10.176,0.9929448243718288,0,0.1247886863729134,0.5630849281554859,1.149636186718294,0,0.008850378128612705,0.4434410833222356,1.037678810476441,0,0.6216618967936062,0.5955391474958731,0.6490365154130382,0,1.219408573996604,0.8471047949373898,0.6630320829978945,0,1.029304046215605,0.610310981837117,803.040293040293,764.7619047619048,821.978021978022,807.8754578754579,1044.395604395604,1163.663003663004,-0.464233,0.013977,0.869141,0.142059,-2.512207,0.530853,422502344.322344,329097435.897436,2548131.868132,82.142456,1,1,1,1,1,94.000000
2025-09-24 16:04:10.176,0.9929448243718288,0,0.1247886863729134,0.5630849281554859,1.149636186718294,0,0.008850378128612705,0.4434410833222356,1.037678810476441,0,0.6216618967936062,0.5955391474958731,0.6490365154130382,0,1.219408573996604,0.8471047949373898,0.6630320829978945,0,1.029304046215605,0.610310981837117,805.8608058608058,740.1831501831502,812.3076923076924,802.2344322344322,983.956043956044,815.5311355311355,-0.464233,0.013977,0.869141,0.142059,-2.512207,0.530853,422502344.322344,329097435.897436,2548131.868132,82.142456,1,1,1,1,1,94.000000
