TimeStamp,Delta_TP9,Delta_AF7,Delta_AF8,Delta_TP10,Theta_TP9,Theta_AF7,Theta_AF8,Theta_TP10,Alpha_TP9,Alpha_AF7,Alpha_AF8,Alpha_TP10,Beta_TP9,Beta_AF7,Beta_AF8,Beta_TP10,Gamma_TP9,Gamma_AF7,Gamma_AF8,Gamma_TP10,RAW_TP9,RAW_AF7,RAW_AF8,RAW_TP10,AUX_RIGHT,AUX_LEFT,Accelerometer_X,Accelerometer_Y,Accelerometer_Z,Gyro_X,Gyro_Y,Gyro_Z,PPG_Ambient,PPG_IR,PPG_Red,Heart_Rate,HeadBandOn,HSI_TP9,HSI_AF7,HSI_AF8,HSI_TP10,Battery,Elements
2025-10-22 15:38:38.851,,,,,,,,,,,,,,,,,,,,,,,,,,,,,,,,,,,,,,,,,,,/muse/event/connected MuseS-9CF6
2025-10-22 15:38:38.886,0.7292736,0.0,-0.727579,0.8303089,0.5982978,0.0,-0.18481655,0.4585894,0.6045239,0.0,0.01816877,0.48676896,0.4003977,0.0,-0.27367508,0.18863842,-0.3524812,0.0,-0.6696296,-0.15733099,805.4579,765.16486,806.26373,797.3993,924.7253,662.4176,-0.0135498046875,0.05963134765625,0.99444580078125,-0.142059326171875,0.059814453125,-0.04486083984375,4.225023443223443E8,3.5354080586080587E8,2451428.5714285714,79.39364,1,1.0,2.0,1.0,1.0,94.00
2025-10-22 15:38:38.887,0.7292736,0.0,-0.727579,0.8303089,0.5982978,0.0,-0.18481655,0.4585894,0.6045239,0.0,0.01816877,0.48676896,0.4003977,0.0,-0.27367508,0.18863842,-0.3524812,0.0,-0.6696296,-0.15733099,808.68134,746.63007,804.2491,801.8315,677.72894,534.2857,-0.0135498046875,0.05963134765625,0.99444580078125,-0.142059326171875,0.059814453125,-0.04486083984375,4.225023443223443E8,3.5354080586080587E8,2451428.5714285714,79.39364,1,1.0,2.0,1.0,1.0,94.00
2025-10-22 15:38:38.887,0.7292736,0.0,-0.727579,0.8303089,0.5982978,0.0,-0.18481655,0.4585894,0.6045239,0.0,0.01816877,0.48676896,0.4003977,0.0,-0.27367508,0.18863842,-0.3524812,0.0,-0.6696296,-0.15733099,801.02563,633.4066,799.41394,804.65204,601.1722,708.7546,-0.0135498046875,0.05963134765625,0.99444580078125,-0.142059326171875,0.059814453125,-0.04486083984375,4.225023443223443E8,3.5354080586080587E8,2451428.5714285714,79.39364,1,1.0,2.0,1.0,1.0,94.00
2025-10-22 15:38:38.887,0.7798532,0.0,-0.7950775,0.87596345,0.5847339,0.0,-0.1844448,0.4605518,0.6419158,0.0,0.015199893,0.48925132,0.40147898,0.0,-0.2870451,0.17494543,-0.34247163,0.0,-0.6834144,-0.16431981,798.60803,1073.8096,801.4286,805.05493,900.9524,878.3883,-0.0135498046875,0.05963134765625,0.99444580078125,-0.142059326171875,0.059814453125,-0.04486083984375,4.225023443223443E8,3.5354080586080587E8,2451428.5714285714,79.39364,1,1.0,2.0,1.0,1.0,94.00
2025-10-22 15:38:38.888,0.7798532,0.0,-0.7950775,0.87596345,0.5847339,0.0,-0.1844448,0.4605518,0.6419158,0.0,0.015199893,0.48925132,0.40147898,0.0,-0.2870451,0.17494543,-0.34247163,0.0,-0.6834144,-0.16431981,805.4579,1004.90845,807.8755,807.47253,968.6447,940.0366,-0.0135498046875,0.05963134765625,0.99444580078125,-0.142059326171875,0.059814453125,-0.04486083984375,4.225023443223443E8,3.5354080586080587E8,2451428.5714285714,79.39364,1,1.0,2.0,1.0,1.0,94.00
2025-10-22 15:38:38.889,0.7798532,0.0,-0.7950775,0.87596345,0.5847339,0.0,-0.1844448,0.4605518,0.6419158,0.0,0.015199893,0.48925132,0.40147898,0.0,-0.2870451,0.17494543,-0.34247163,0.0,-0.6834144,-0.16431981,807.8755,763.1502,805.4579,811.50183,754.68866,979.92676,-0.0135498046875,0.05963134765625,0.99444580078125,-0.142059326171875,0.059814453125,-0.04486083984375,4.225023443223443E8,3.5354080586080587E8,2451428.5714285714,79.39364,1,1.0,2.0,1.0,1.0,94.00
2025-10-22 15:38:38.889,0.7798532,0.0,-0.7950775,0.87596345,0.5847339,0.0,-0.1844448,0.4605518,0.6419158,0.0,0.015199893,0.48925132,0.40147898,0.0,-0.2870451,0.17494543,-0.34247163,0.0,-0.6834144,-0.16431981,802.23444,414.6154,804.65204,813.91943,678.5348,938.4249,-0.0135498046875,0.05963134765625,0.99444580078125,-0.142059326171875,0.059814453125,-0.04486083984375,4.225023443223443E8,3.5354080586080587E8,2451428.5714285714,79.39364,1,1.0,2.0,1.0,1.0,94.00
2025-10-22 15:38:38.889,0.7798532,0.0,-0.7950775,0.87596345,0.5847339,0.0,-0.1844448,0.4605518,0.6419158,0.0,0.015199893,0.48925132,0.40147898,0.0,-0.2870451,0.17494543,-0.34247163,0.0,-0.6834144,-0.16431981,798.20514,931.1722,805.4579,815.5311,778.86444,953.73627,-0.0135498046875,0.05963134765625,0.99444580078125,-0.142059326171875,0.059814453125,-0.04486083984375,4.225023443223443E8,3.5354080586080587E8,2451428.5714285714,79.39364,1,1.0,2.0,1.0,1.0,94.00
2025-10-22 15:38:38.889,0.7798532,0.0,-0.7950775,0.87596345,0.5847339,0.0,-0.1844448,0.4605518,0.6419158,0.0,0.015199893,0.48925132,0.40147898,0.0,-0.2870451,0.17494543,-0.34247163,0.0,-0.6834144,-0.16431981,803.8461,1015.78754,805.8608,811.9048,996.4469,848.97437,-0.0135498046875,0.05963134765625,0.99444580078125,-0.142059326171875,0.059814453125,-0.04486083984375,4.225023443223443E8,3.5354080586080587E8,2451428.5714285714,79.39364,1,1.0,2.0,1.0,1.0,94.00
2025-10-22 15:38:38.889,0.7798532,0.0,-0.7950775,0.87596345,0.5847339,0.0,-0.1844448,0.4605518,0.6419158,0.0,0.015199893,0.48925132,0.40147898,0.0,-0.2870451,0.17494543,-0.34247163,0.0,-0.6834144,-0.16431981,801.02563,683.7729,803.44324,804.65204,777.6557,597.5458,-0.0135498046875,0.05963134765625,0.99444580078125,-0.142059326171875,0.059814453125,-0.04486083984375,4.225023443223443E8,3.5354080586080587E8,2451428.5714285714,79.39364,1,1.0,2.0,1.0,1.0,94.00
2025-10-22 15:38:38.890,0.7798532,0.0,-0.7950775,0.87596345,0.5847339,0.0,-0.1844448,0.4605518,0.6419158,0.0,0.015199893,0.48925132,0.40147898,0.0,-0.2870451,0.17494543,-0.34247163,0.0,-0.6834144,-0.16431981,794.57874,534.68866,803.0403,803.0403,645.09155,527.8388,-0.0135498046875,0.05963134765625,0.99444580078125,-0.142059326171875,0.059814453125,-0.04486083984375,4.225023443223443E8,3.5354080586080587E8,2451428.5714285714,79.39364,1,1.0,2.0,1.0,1.0,94.00
2025-10-22 15:38:38.890,0.7798532,0.0,-0.7950775,0.87596345,0.5847339,0.0,-0.1844448,0.4605518,0.6419158,0.0,0.015199893,0.48925132,0.40147898,0.0,-0.2870451,0.17494543,-0.34247163,0.0,-0.6834144,-0.16431981,790.9524,796.1905,805.4579,806.26373,751.8681,614.4689,-0.0135498046875,0.05963134765625,0.99444580078125,-0.142059326171875,0.059814453125,-0.04486083984375,4.225023443223443E8,3.5354080586080587E8,2451428.5714285714,79.39364,1,1.0,2.0,1.0,1.0,94.00
2025-10-22 15:38:38.916,0.7798532,0.0,-0.7950775,0.87596345,0.5847339,0.0,-0.1844448,0.4605518,0.6419158,0.0,0.015199893,0.48925132,0.40147898,0.0,-0.2870451,0.17494543,-0.34247163,0.0,-0.6834144,-0.16431981,798.60803,1396.5568,805.8608,805.05493,1020.2198,912.23444,-0.009033203125,0.0601806640625,1.01226806640625,-0.216827392578125,-1.1663818359375,-0.052337646484375,4.225023443223443E8,3.533506227106227E8,2469157.509157509,79.74123,1,1.0,2.0,1.0,1.0,94.00
2025-10-22 15:38:38.917,0.7798532,0.0,-0.7950775,0.87596345,0.5847339,0.0,-0.1844448,0.4605518,0.6419158,0.0,0.015199893,0.48925132,0.40147898,0.0,-0.2870451,0.17494543,-0.34247163,0.0,-0.6834144,-0.16431981,805.4579,738.1685,807.47253,801.4286,923.91943,833.2601,-0.009033203125,0.0601806640625,1.01226806640625,-0.216827392578125,-1.1663818359375,-0.052337646484375,4.225023443223443E8,3.533506227106227E8,2469157.509157509,79.74123,1,1.0,2.0,1.0,1.0,94.00
2025-10-22 15:38:38.917,0.7798532,0.0,-0.7950775,0.87596345,0.5847339,0.0,-0.1844448,0.4605518,0.6419158,0.0,0.015199893,0.48925132,0.40147898,0.0,-0.2870451,0.17494543,-0.34247163,0.0,-0.6834144,-0.16431981,805.8608,576.1905,805.4579,801.4286,734.5421,637.8388,-0.009033203125,0.0601806640625,1.01226806640625,-0.216827392578125,-1.1663818359375,-0.052337646484375,4.225023443223443E8,3.533506227106227E8,2469157.509157509,79.74123,1,1.0,2.0,1.0,1.0,94.00
2025-10-22 15:38:38.917,0.7798532,0.0,-0.7950775,0.87596345,0.5847339,0.0,-0.1844448,0.4605518,0.6419158,0.0,0.015199893,0.48925132,0.40147898,0.0,-0.2870451,0.17494543,-0.34247163,0.0,-0.6834144,-0.16431981,798.20514,572.5641,803.44324,803.8461,717.2161,621.31866,-0.009033203125,0.0601806640625,1.01226806640625,-0.216827392578125,-1.1663818359375,-0.052337646484375,4.225023443223443E8,3.533506227106227E8,2469157.509157509,79.74123,1,1.0,2.0,1.0,1.0,94.00
2025-10-22 15:38:38.917,0.7798532,0.0,-0.7950775,0.87596345,0.5847339,0.0,-0.1844448,0.4605518,0.6419158,0.0,0.015199893,0.48925132,0.40147898,0.0,-0.2870451,0.17494543,-0.34247163,0.0,-0.6834144,-0.16431981,799.41394,1289.3773,806.26373,797.8022,962.1978,917.8755,-0.009033203125,0.0601806640625,1.01226806640625,-0.216827392578125,-1.1663818359375,-0.052337646484375,4.225023443223443E8,3.533506227106227E8,2469157.509157509,79.74123,1,1.0,2.0,1.0,1.0,94.00
2025-10-22 15:38:38.918,0.7798532,0.0,-0.7950775,0.87596345,0.5847339,0.0,-0.1844448,0.4605518,0.6419158,0.0,0.015199893,0.48925132,0.40147898,0.0,-0.2870451,0.17494543,-0.34247163,0.0,-0.6834144,-0.16431981,808.2784,945.6777,807.47253,789.7436,940.0366,1099.1941,-0.009033203125,0.0601806640625,1.01226806640625,-0.216827392578125,-1.1663818359375,-0.052337646484375,4.225023443223443E8,3.533506227106227E8,2469157.509157509,79.74123,1,1.0,2.0,1.0,1.0,94.00
2025-10-22 15:38:38.918,0.7798532,0.0,-0.7950775,0.87596345,0.5847339,0.0,-0.1844448,0.4605518,0.6419158,0.0,0.015199893,0.48925132,0.40147898,0.0,-0.2870451,0.17494543,-0.34247163,0.0,-0.6834144,-0.16431981,813.1135,682.1612,804.65204,788.93774,767.1795,1088.3151,-0.009033203125,0.0601806640625,1.01226806640625,-0.216827392578125,-1.1663818359375,-0.052337646484375,4.225023443223443E8,3.533506227106227E8,2469157.509157509,79.74123,1,1.0,2.0,1.0,1.0,94.00
2025-10-22 15:38:38.918,0.7798532,0.0,-0.7950775,0.87596345,0.5847339,0.0,-0.1844448,0.4605518,0.6419158,0.0,0.015199893,0.48925132,0.40147898,0.0,-0.2870451,0.17494543,-0.34247163,0.0,-0.6834144,-0.16431981,802.23444,317.10623,799.41394,792.96704,738.97437,1020.2198,-0.009033203125,0.0601806640625,1.01226806640625,-0.216827392578125,-1.1663818359375,-0.052337646484375,4.225023443223443E8,3.533506227106227E8,2469157.509157509,79.74123,1,1.0,2.0,1.0,1.0,94.00
2025-10-22 15:38:38.918,0.7798532,0.0,-0.7950775,0.87596345,0.5847339,0.0,-0.1844448,0.4605518,0.6419158,0.0,0.015199893,0.48925132,0.40147898,0.0,-0.2870451,0.17494543,-0.34247163,0.0,-0.6834144,-0.16431981,795.38464,711.5751,800.6227,799.41394,963.4066,808.68134,-0.009033203125,0.0601806640625,1.01226806640625,-0.216827392578125,-1.1663818359375,-0.052337646484375,4.225023443223443E8,3.533506227106227E8,2469157.509157509,79.74123,1,1.0,2.0,1.0,1.0,94.00
2025-10-22 15:38:38.919,0.7798532,0.0,-0.7950775,0.87596345,0.5847339,0.0,-0.1844448,0.4605518,0.6419158,0.0,0.015199893,0.48925132,0.40147898,0.0,-0.2870451,0.17494543,-0.34247163,0.0,-0.6834144,-0.16431981,805.4579,1053.2601,806.26373,802.6374,1050.8425,740.989,-0.009033203125,0.0601806640625,1.01226806640625,-0.216827392578125,-1.1663818359375,-0.052337646484375,4.225023443223443E8,3.533506227106227E8,2469157.509157509,79.74123,1,1.0,2.0,1.0,1.0,94.00
2025-10-22 15:38:38.919,0.7798532,0.0,-0.7950775,0.87596345,0.5847339,0.0,-0.1844448,0.4605518,0.6419158,0.0,0.015199893,0.48925132,0.40147898,0.0,-0.2870451,0.17494543,-0.34247163,0.0,-0.6834144,-0.16431981,813.5165,825.6044,805.05493,799.81683,830.0366,738.97437,-0.009033203125,0.0601806640625,1.01226806640625,-0.216827392578125,-1.1663818359375,-0.052337646484375,4.225023443223443E8,3.533506227106227E8,2469157.509157509,79.74123,1,1.0,2.0,1.0,1.0,94.00
2025-10-22 15:38:38.919,0.7798532,0.0,-0.7950775,0.87596345,0.5847339,0.0,-0.1844448,0.4605518,0.6419158,0.0,0.015199893,0.48925132,0.40147898,0.0,-0.2870451,0.17494543,-0.34247163,0.0,-0.6834144,-0.16431981,804.2491,324.7619,800.6227,801.8315,759.5238,609.2308,-0.009033203125,0.0601806640625,1.01226806640625,-0.216827392578125,-1.1663818359375,-0.052337646484375,4.225023443223443E8,3.533506227106227E8,2469157.509157509,79.74123,1,1.0,2.0,1.0,1.0,94.00
2025-10-22 15:38:38.965,0.7798532,0.0,-0.7950775,0.87596345,0.5847339,0.0,-0.1844448,0.4605518,0.6419158,0.0,0.015199893,0.48925132,0.40147898,0.0,-0.2870451,0.17494543,-0.34247163,0.0,-0.6834144,-0.16431981,794.17584,810.696,803.44324,807.8755,896.52014,636.63007,0.00579833984375,0.06085205078125,1.0279541015625,-0.73272705078125,-0.441131591796875,1.069183349609375,4.225023443223443E8,3.533506227106227E8,2469157.509157509,79.74123,1,1.0,2.0,1.0,1.0,94.00
2025-10-22 15:38:38.966,0.7798532,0.0,-0.7950775,0.87596345,0.5847339,0.0,-0.1844448,0.4605518,0.6419158,0.0,0.015199893,0.48925132,0.40147898,0.0,-0.2870451,0.17494543,-0.34247163,0.0,-0.6834144,-0.16431981,803.8461,1313.1501,805.8608,806.6667,1089.9268,891.28204,0.00579833984375,0.06085205078125,1.0279541015625,-0.73272705078125,-0.441131591796875,1.069183349609375,4.225023443223443E8,3.533506227106227E8,2469157.509157509,79.74123,1,1.0,2.0,1.0,1.0,94.00
2025-10-22 15:38:38.966,0.7798532,0.0,-0.7950775,0.87596345,0.5847339,0.0,-0.1844448,0.4605518,0.6419158,0.0,0.015199893,0.48925132,0.40147898,0.0,-0.2870451,0.17494543,-0.34247163,0.0,-0.6834144,-0.16431981,805.8608,662.8205,801.4286,799.81683,950.10986,805.8608,0.00579833984375,0.06085205078125,1.0279541015625,-0.73272705078125,-0.441131591796875,1.069183349609375,4.225023443223443E8,3.533506227106227E8,2469157.509157509,79.74123,1,1.0,2.0,1.0,1.0,94.00
2025-10-22 15:38:38.966,0.7798532,0.0,-0.7950775,0.87596345,0.5847339,0.0,-0.1844448,0.4605518,0.6419158,0.0,0.015199893,0.48925132,0.40147898,0.0,-0.2870451,0.17494543,-0.34247163,0.0,-0.6834144,-0.16431981,800.6227,568.5348,799.41394,793.7729,757.50916,635.0183,0.00579833984375,0.06085205078125,1.0279541015625,-0.73272705078125,-0.441131591796875,1.069183349609375,4.225023443223443E8,3.533506227106227E8,2469157.509157509,79.74123,1,1.0,2.0,1.0,1.0,94.00
2025-10-22 15:38:38.966,0.7798532,0.0,-0.7950775,0.87596345,0.5847339,0.0,-0.1844448,0.4605518,0.6419158,0.0,0.015199893,0.48925132,0.40147898,0.0,-0.2870451,0.17494543,-0.34247163,0.0,-0.6834144,-0.16431981,791.3553,796.99634,802.6374,794.9817,774.0293,794.57874,0.00579833984375,0.06085205078125,1.0279541015625,-0.73272705078125,-0.441131591796875,1.069183349609375,4.225023443223443E8,3.533506227106227E8,2469157.509157509,79.74123,1,1.0,2.0,1.0,1.0,94.00
2025-10-22 15:38:38.966,0.80254996,0.0,-0.8179183,0.8822951,0.56647944,0.0,-0.18498316,0.4560026,0.6579505,0.0,0.020464692,0.5110746,0.41205958,0.0,-0.2894926,0.1640408,-0.30601105,0.0,-0.68919694,-0.17035498,792.1612,1320.0,807.47253,794.17584,1046.8132,1320.403,0.00579833984375,0.06085205078125,1.0279541015625,-0.73272705078125,-0.441131591796875,1.069183349609375,4.225023443223443E8,3.533506227106227E8,2469157.509157509,79.74123,1,1.0,2.0,1.0,1.0,94.00
2025-10-22 15:38:38.967,0.80254996,0.0,-0.8179183,0.8822951,0.56647944,0.0,-0.18498316,0.4560026,0.6579505,0.0,0.020464692,0.5110746,0.41205958,0.0,-0.2894926,0.1640408,-0.30601105,0.0,-0.68919694,-0.17035498,799.81683,651.9414,805.8608,790.14655,983.1502,1319.597,0.00579833984375,0.06085205078125,1.0279541015625,-0.73272705078125,-0.441131591796875,1.069183349609375,4.225023443223443E8,3.533506227106227E8,2469157.509157509,79.74123,1,1.0,2.0,1.0,1.0,94.00
2025-10-22 15:38:38.968,0.80254996,0.0,-0.8179183,0.8822951,0.56647944,0.0,-0.18498316,0.4560026,0.6579505,0.0,0.020464692,0.5110746,0.41205958,0.0,-0.2894926,0.1640408,-0.30601105,0.0,-0.68919694,-0.17035498,799.81683,678.93774,802.23444,790.14655,733.3333,1052.0513,0.00579833984375,0.06085205078125,1.0279541015625,-0.73272705078125,-0.441131591796875,1.069183349609375,4.225023443223443E8,3.533506227106227E8,2469157.509157509,79.74123,1,1.0,2.0,1.0,1.0,94.00
2025-10-22 15:38:38.968,0.80254996,0.0,-0.8179183,0.8822951,0.56647944,0.0,-0.18498316,0.4560026,0.6579505,0.0,0.020464692,0.5110746,0.41205958,0.0,-0.2894926,0.1640408,-0.30601105,0.0,-0.68919694,-0.17035498,790.54944,484.32236,796.1905,797.8022,677.72894,513.73627,0.00579833984375,0.06085205078125,1.0279541015625,-0.73272705078125,-0.441131591796875,1.069183349609375,4.225023443223443E8,3.533506227106227E8,2469157.509157509,79.74123,1,1.0,2.0,1.0,1.0,94.00
2025-10-22 15:38:38.968,0.80254996,0.0,-0.8179183,0.8822951,0.56647944,0.0,-0.18498316,0.4560026,0.6579505,0.0,0.020464692,0.5110746,0.41205958,0.0,-0.2894926,0.1640408,-0.30601105,0.0,-0.68919694,-0.17035498,794.9817,1229.7435,800.2198,799.41394,855.0183,849.7802,0.00579833984375,0.06085205078125,1.0279541015625,-0.73272705078125,-0.441131591796875,1.069183349609375,4.225023443223443E8,3.533506227106227E8,2469157.509157509,79.74123,1,1.0,2.0,1.0,1.0,94.00
2025-10-22 15:38:38.968,0.80254996,0.0,-0.8179183,0.8822951,0.56647944,0.0,-0.18498316,0.4560026,0.6579505,0.0,0.020464692,0.5110746,0.41205958,0.0,-0.2894926,0.1640408,-0.30601105,0.0,-0.68919694,-0.17035498,805.4579,871.53845,807.47253,797.3993,965.82416,1124.5787,0.00579833984375,0.06085205078125,1.0279541015625,-0.73272705078125,-0.441131591796875,1.069183349609375,4.225023443223443E8,3.533506227106227E8,2469157.509157509,79.74123,1,1.0,2.0,1.0,1.0,94.00
2025-10-22 15:38:38.968,0.80254996,0.0,-0.8179183,0.8822951,0.56647944,0.0,-0.18498316,0.4560026,0.6579505,0.0,0.020464692,0.5110746,0.41205958,0.0,-0.2894926,0.1640408,-0.30601105,0.0,-0.68919694,-0.17035498,806.6667,370.29303,805.05493,801.4286,787.72894,674.5055,0.00579833984375,0.06085205078125,1.0279541015625,-0.73272705078125,-0.441131591796875,1.069183349609375,4.225023443223443E8,3.533506227106227E8,2469157.509157509,79.74123,1,1.0,2.0,1.0,1.0,94.00
2025-10-22 15:38:39.020,0.80254996,0.0,-0.8179183,0.8822951,0.56647944,0.0,-0.18498316,0.4560026,0.6579505,0.0,0.020464692,0.5110746,0.41205958,0.0,-0.2894926,0.1640408,-0.30601105,0.0,-0.68919694,-0.17035498,801.4286,341.68497,802.6374,809.4872,675.7143,469.011,-0.013671875,0.08282470703125,1.01104736328125,-1.57012939453125,2.758941650390625,3.028106689453125,4.225023443223443E8,3.53412673992674E8,2418388.278388278,80.01339,1,1.0,2.0,1.0,1.0,94.00
2025-10-22 15:38:39.021,0.80254996,0.0,-0.8179183,0.8822951,0.56647944,0.0,-0.18498316,0.4560026,0.6579505,0.0,0.020464692,0.5110746,0.41205958,0.0,-0.2894926,0.1640408,-0.30601105,0.0,-0.68919694,-0.17035498,800.6227,1180.586,807.47253,809.89014,948.9011,728.9011,-0.013671875,0.08282470703125,1.01104736328125,-1.57012939453125,2.758941650390625,3.028106689453125,4.225023443223443E8,3.53412673992674E8,2418388.278388278,80.01339,1,1.0,2.0,1.0,1.0,94.00
2025-10-22 15:38:39.021,0.80254996,0.0,-0.8179183,0.8822951,0.56647944,0.0,-0.18498316,0.4560026,0.6579505,0.0,0.020464692,0.5110746,0.41205958,0.0,-0.2894926,0.1640408,-0.30601105,0.0,-0.68919694,-0.17035498,806.6667,1135.4579,810.696,805.4579,1113.6996,981.9414,-0.013671875,0.08282470703125,1.01104736328125,-1.57012939453125,2.758941650390625,3.028106689453125,4.225023443223443E8,3.53412673992674E8,2418388.278388278,80.01339,1,1.0,2.0,1.0,1.0,94.00
2025-10-22 15:38:39.021,0.80254996,0.0,-0.8179183,0.8822951,0.56647944,0.0,-0.18498316,0.4560026,0.6579505,0.0,0.020464692,0.5110746,0.41205958,0.0,-0.2894926,0.1640408,-0.30601105,0.0,-0.68919694,-0.17035498,806.26373,429.92673,805.4579,803.44324,879.19415,710.3663,-0.013671875,0.08282470703125,1.01104736328125,-1.57012939453125,2.758941650390625,3.028106689453125,4.225023443223443E8,3.53412673992674E8,2418388.278388278,80.01339,1,1.0,2.0,1.0,1.0,94.00
2025-10-22 15:38:39.022,0.80254996,0.0,-0.8179183,0.8822951,0.56647944,0.0,-0.18498316,0.4560026,0.6579505,0.0,0.020464692,0.5110746,0.41205958,0.0,-0.2894926,0.1640408,-0.30601105,0.0,-0.68919694,-0.17035498,801.4286,350.9524,803.44324,803.8461,655.56775,382.78387,-0.013671875,0.08282470703125,1.01104736328125,-1.57012939453125,2.758941650390625,3.028106689453125,4.225023443223443E8,3.53412673992674E8,2418388.278388278,80.01339,1,1.0,2.0,1.0,1.0,94.00
2025-10-22 15:38:39.022,0.80254996,0.0,-0.8179183,0.8822951,0.56647944,0.0,-0.18498316,0.4560026,0.6579505,0.0,0.020464692,0.5110746,0.41205958,0.0,-0.2894926,0.1640408,-0.30601105,0.0,-0.68919694,-0.17035498,795.78754,1274.0659,802.23444,807.8755,730.5128,814.7253,-0.013671875,0.08282470703125,1.01104736328125,-1.57012939453125,2.758941650390625,3.028106689453125,4.225023443223443E8,3.53412673992674E8,2418388.278388278,80.01339,1,1.0,2.0,1.0,1.0,94.00
2025-10-22 15:38:39.022,0.80254996,0.0,-0.8179183,0.8822951,0.56647944,0.0,-0.18498316,0.4560026,0.6579505,0.0,0.020464692,0.5110746,0.41205958,0.0,-0.2894926,0.1640408,-0.30601105,0.0,-0.68919694,-0.17035498,799.41394,1513.4066,801.8315,805.8608,1024.652,1417.9121,-0.013671875,0.08282470703125,1.01104736328125,-1.57012939453125,2.758941650390625,3.028106689453125,4.225023443223443E8,3.53412673992674E8,2418388.278388278,80.01339,1,1.0,2.0,1.0,1.0,94.00
2025-10-22 15:38:39.022,0.80254996,0.0,-0.8179183,0.8822951,0.56647944,0.0,-0.18498316,0.4560026,0.6579505,0.0,0.020464692,0.5110746,0.41205958,0.0,-0.2894926,0.1640408,-0.30601105,0.0,-0.68919694,-0.17035498,798.20514,244.17583,799.41394,798.60803,887.25275,868.315,-0.013671875,0.08282470703125,1.01104736328125,-1.57012939453125,2.758941650390625,3.028106689453125,4.225023443223443E8,3.53412673992674E8,2418388.278388278,80.01339,1,1.0,2.0,1.0,1.0,94.00
2025-10-22 15:38:39.022,0.80254996,0.0,-0.8179183,0.8822951,0.56647944,0.0,-0.18498316,0.4560026,0.6579505,0.0,0.020464692,0.5110746,0.41205958,0.0,-0.2894926,0.1640408,-0.30601105,0.0,-0.68919694,-0.17035498,799.011,319.5238,798.20514,798.20514,633.00366,323.5531,-0.013671875,0.08282470703125,1.01104736328125,-1.57012939453125,2.758941650390625,3.028106689453125,4.225023443223443E8,3.53412673992674E8,2418388.278388278,80.01339,1,1.0,2.0,1.0,1.0,94.00
2025-10-22 15:38:39.023,0.80254996,0.0,-0.8179183,0.8822951,0.56647944,0.0,-0.18498316,0.4560026,0.6579505,0.0,0.020464692,0.5110746,0.41205958,0.0,-0.2894926,0.1640408,-0.30601105,0.0,-0.68919694,-0.17035498,797.3993,1088.7179,801.4286,801.02563,776.4469,602.7839,-0.013671875,0.08282470703125,1.01104736328125,-1.57012939453125,2.758941650390625,3.028106689453125,4.225023443223443E8,3.53412673992674E8,2418388.278388278,80.01339,1,1.0,2.0,1.0,1.0,94.00
2025-10-22 15:38:39.023,0.80254996,0.0,-0.8179183,0.8822951,0.56647944,0.0,-0.18498316,0.4560026,0.6579505,0.0,0.020464692,0.5110746,0.41205958,0.0,-0.2894926,0.1640408,-0.30601105,0.0,-0.68919694,-0.17035498,798.60803,1371.978,808.68134,802.23444,1108.8645,954.94507,-0.013671875,0.08282470703125,1.01104736328125,-1.57012939453125,2.758941650390625,3.028106689453125,4.225023443223443E8,3.53412673992674E8,2418388.278388278,80.01339,1,1.0,2.0,1.0,1.0,94.00
2025-10-22 15:38:39.023,0.80254996,0.0,-0.8179183,0.8822951,0.56647944,0.0,-0.18498316,0.4560026,0.6579505,0.0,0.020464692,0.5110746,0.41205958,0.0,-0.2894926,0.1640408,-0.30601105,0.0,-0.68919694,-0.17035498,801.02563,514.94507,808.2784,800.6227,853.4066,718.4249,-0.013671875,0.08282470703125,1.01104736328125,-1.57012939453125,2.758941650390625,3.028106689453125,4.225023443223443E8,3.53412673992674E8,2418388.278388278,80.01339,1,1.0,2.0,1.0,1.0,94.00
2025-10-22 15:38:39.048,0.80254996,0.0,-0.8179183,0.8822951,0.56647944,0.0,-0.18498316,0.4560026,0.6579505,0.0,0.020464692,0.5110746,0.41205958,0.0,-0.2894926,0.1640408,-0.30601105,0.0,-0.68919694,-0.17035498,803.44324,792.96704,804.2491,796.99634,597.1429,727.28937,-0.02508544921875,0.058837890625,1.00518798828125,-1.18133544921875,2.9010009765625,0.46356201171875,4.225023443223443E8,3.53412673992674E8,2418388.278388278,80.01339,1,1.0,2.0,1.0,1.0,94.00
2025-10-22 15:38:39.048,0.80254996,0.0,-0.8179183,0.8822951,0.56647944,0.0,-0.18498316,0.4560026,0.6579505,0.0,0.020464692,0.5110746,0.41205958,0.0,-0.2894926,0.1640408,-0.30601105,0.0,-0.68919694,-0.17035498,797.3993,597.1429,805.4579,798.20514,774.83514,864.2857,-0.02508544921875,0.058837890625,1.00518798828125,-1.18133544921875,2.9010009765625,0.46356201171875,4.225023443223443E8,3.53412673992674E8,2418388.278388278,80.01339,1,1.0,2.0,1.0,1.0,94.00
2025-10-22 15:38:39.049,0.80254996,0.0,-0.8179183,0.8822951,0.56647944,0.0,-0.18498316,0.4560026,0.6579505,0.0,0.020464692,0.5110746,0.41205958,0.0,-0.2894926,0.1640408,-0.30601105,0.0,-0.68919694,-0.17035498,798.20514,1096.7766,804.2491,799.41394,1047.619,906.1905,-0.02508544921875,0.058837890625,1.00518798828125,-1.18133544921875,2.9010009765625,0.46356201171875,4.225023443223443E8,3.53412673992674E8,2418388.278388278,80.01339,1,1.0,2.0,1.0,1.0,94.00
2025-10-22 15:38:39.049,0.80254996,0.0,-0.8179183,0.8822951,0.56647944,0.0,-0.18498316,0.4560026,0.6579505,0.0,0.020464692,0.5110746,0.41205958,0.0,-0.2894926,0.1640408,-0.30601105,0.0,-0.68919694,-0.17035498,807.47253,673.69965,804.65204,798.20514,1020.2198,804.2491,-0.02508544921875,0.058837890625,1.00518798828125,-1.18133544921875,2.9010009765625,0.46356201171875,4.225023443223443E8,3.53412673992674E8,2418388.278388278,80.01339,1,1.0,2.0,1.0,1.0,94.00
2025-10-22 15:38:39.049,0.80254996,0.0,-0.8179183,0.8822951,0.56647944,0.0,-0.18498316,0.4560026,0.6579505,0.0,0.020464692,0.5110746,0.41205958,0.0,-0.2894926,0.1640408,-0.30601105,0.0,-0.68919694,-0.17035498,811.50183,487.54578,802.23444,795.78754,694.65204,596.337,-0.02508544921875,0.058837890625,1.00518798828125,-1.18133544921875,2.9010009765625,0.46356201171875,4.225023443223443E8,3.53412673992674E8,2418388.278388278,80.01339,1,1.0,2.0,1.0,1.0,94.00
2025-10-22 15:38:39.049,0.80254996,0.0,-0.8179183,0.8822951,0.56647944,0.0,-0.18498316,0.4560026,0.6579505,0.0,0.020464692,0.5110746,0.41205958,0.0,-0.2894926,0.1640408,-0.30601105,0.0,-0.68919694,-0.17035498,799.011,649.12085,800.2198,796.5934,705.12823,857.03296,-0.02508544921875,0.058837890625,1.00518798828125,-1.18133544921875,2.9010009765625,0.46356201171875,4.225023443223443E8,3.53412673992674E8,2418388.278388278,80.01339,1,1.0,2.0,1.0,1.0,94.00
2025-10-22 15:38:39.049,0.80254996,0.0,-0.8179183,0.8822951,0.56647944,0.0,-0.18498316,0.4560026,0.6579505,0.0,0.020464692,0.5110746,0.41205958,0.0,-0.2894926,0.1640408,-0.30601105,0.0,-0.68919694,-0.17035498,792.1612,1259.1575,802.23444,805.05493,1008.93774,1342.1611,-0.02508544921875,0.058837890625,1.00518798828125,-1.18133544921875,2.9010009765625,0.46356201171875,4.225023443223443E8,3.53412673992674E8,2418388.278388278,80.01339,1,1.0,2.0,1.0,1.0,94.00
2025-10-22 15:38:39.050,0.8053413,0.0,-0.81264365,0.8678829,0.55005795,0.0,-0.19306284,0.44861794,0.6592398,0.0,0.023875568,0.5497669,0.42593956,0.0,-0.27451724,0.16004635,-0.25575024,0.0,-0.6784068,-0.17236829,803.8461,983.95605,806.6667,809.4872,1093.1501,1297.033,-0.02508544921875,0.058837890625,1.00518798828125,-1.18133544921875,2.9010009765625,0.46356201171875,4.225023443223443E8,3.53412673992674E8,2418388.278388278,80.01339,1,1.0,2.0,1.0,1.0,94.00
2025-10-22 15:38:39.051,0.8053413,0.0,-0.81264365,0.8678829,0.55005795,0.0,-0.19306284,0.44861794,0.6592398,0.0,0.023875568,0.5497669,0.42593956,0.0,-0.27451724,0.16004635,-0.25575024,0.0,-0.6784068,-0.17236829,805.8608,199.04762,808.2784,801.8315,788.1319,524.61536,-0.02508544921875,0.058837890625,1.00518798828125,-1.18133544921875,2.9010009765625,0.46356201171875,4.225023443223443E8,3.53412673992674E8,2418388.278388278,80.01339,1,1.0,2.0,1.0,1.0,94.00
2025-10-22 15:38:39.051,0.8053413,0.0,-0.81264365,0.8678829,0.55005795,0.0,-0.19306284,0.44861794,0.6592398,0.0,0.023875568,0.5497669,0.42593956,0.0,-0.27451724,0.16004635,-0.25575024,0.0,-0.6784068,-0.17236829,797.8022,657.98535,805.05493,801.4286,592.3077,429.5238,-0.02508544921875,0.058837890625,1.00518798828125,-1.18133544921875,2.9010009765625,0.46356201171875,4.225023443223443E8,3.53412673992674E8,2418388.278388278,80.01339,1,1.0,2.0,1.0,1.0,94.00
2025-10-22 15:38:39.051,0.8053413,0.0,-0.81264365,0.8678829,0.55005795,0.0,-0.19306284,0.44861794,0.6592398,0.0,0.023875568,0.5497669,0.42593956,0.0,-0.27451724,0.16004635,-0.25575024,0.0,-0.6784068,-0.17236829,793.36993,1191.4652,806.6667,814.7253,829.6337,745.82416,-0.02508544921875,0.058837890625,1.00518798828125,-1.18133544921875,2.9010009765625,0.46356201171875,4.225023443223443E8,3.53412673992674E8,2418388.278388278,80.01339,1,1.0,2.0,1.0,1.0,94.00
2025-10-22 15:38:39.052,0.8053413,0.0,-0.81264365,0.8678829,0.55005795,0.0,-0.19306284,0.44861794,0.6592398,0.0,0.023875568,0.5497669,0.42593956,0.0,-0.27451724,0.16004635,-0.25575024,0.0,-0.6784068,-0.17236829,800.2198,1353.8462,812.71063,816.337,1058.4982,896.52014,-0.02508544921875,0.058837890625,1.00518798828125,-1.18133544921875,2.9010009765625,0.46356201171875,4.225023443223443E8,3.53412673992674E8,2418388.278388278,80.01339,1,1.0,2.0,1.0,1.0,94.00
2025-10-22 15:38:39.111,0.8053413,0.0,-0.81264365,0.8678829,0.55005795,0.0,-0.19306284,0.44861794,0.6592398,0.0,0.023875568,0.5497669,0.42593956,0.0,-0.27451724,0.16004635,-0.25575024,0.0,-0.6784068,-0.17236829,801.8315,443.22345,813.5165,812.3077,739.3773,577.3993,-0.02508544921875,0.058837890625,1.00518798828125,-1.18133544921875,2.9010009765625,0.46356201171875,4.225023443223443E8,3.5341992673992676E8,2409523.8095238092,80.21618,1,1.0,2.0,1.0,1.0,94.00
2025-10-22 15:38:39.111,0.8053413,0.0,-0.81264365,0.8678829,0.55005795,0.0,-0.19306284,0.44861794,0.6592398,0.0,0.023875568,0.5497669,0.42593956,0.0,-0.27451724,0.16004635,-0.25575024,0.0,-0.6784068,-0.17236829,805.8608,790.14655,809.4872,817.1429,600.7692,481.0989,-0.02508544921875,0.058837890625,1.00518798828125,-1.18133544921875,2.9010009765625,0.46356201171875,4.225023443223443E8,3.5341992673992676E8,2409523.8095238092,80.21618,1,1.0,2.0,1.0,1.0,94.00
2025-10-22 15:38:39.112,0.8053413,0.0,-0.81264365,0.8678829,0.55005795,0.0,-0.19306284,0.44861794,0.6592398,0.0,0.023875568,0.5497669,0.42593956,0.0,-0.27451724,0.16004635,-0.25575024,0.0,-0.6784068,-0.17236829,798.20514,805.4579,807.8755,816.337,835.2747,705.5311,-0.02508544921875,0.058837890625,1.00518798828125,-1.18133544921875,2.9010009765625,0.46356201171875,4.225023443223443E8,3.5341992673992676E8,2409523.8095238092,80.21618,1,1.0,2.0,1.0,1.0,94.00
2025-10-22 15:38:39.112,0.8053413,0.0,-0.81264365,0.8678829,0.55005795,0.0,-0.19306284,0.44861794,0.6592398,0.0,0.023875568,0.5497669,0.42593956,0.0,-0.27451724,0.16004635,-0.25575024,0.0,-0.6784068,-0.17236829,796.5934,1205.5677,808.2784,812.71063,1087.9121,980.7326,-0.02508544921875,0.058837890625,1.00518798828125,-1.18133544921875,2.9010009765625,0.46356201171875,4.225023443223443E8,3.5341992673992676E8,2409523.8095238092,80.21618,1,1.0,2.0,1.0,1.0,94.00
2025-10-22 15:38:39.112,0.8053413,0.0,-0.81264365,0.8678829,0.55005795,0.0,-0.19306284,0.44861794,0.6592398,0.0,0.023875568,0.5497669,0.42593956,0.0,-0.27451724,0.16004635,-0.25575024,0.0,-0.6784068,-0.17236829,804.2491,624.94507,811.50183,813.5165,936.0073,885.64105,-0.02508544921875,0.058837890625,1.00518798828125,-1.18133544921875,2.9010009765625,0.46356201171875,4.225023443223443E8,3.5341992673992676E8,2409523.8095238092,80.21618,1,1.0,2.0,1.0,1.0,94.00
2025-10-22 15:38:39.112,0.8053413,0.0,-0.81264365,0.8678829,0.55005795,0.0,-0.19306284,0.44861794,0.6592398,0.0,0.023875568,0.5497669,0.42593956,0.0,-0.27451724,0.16004635,-0.25575024,0.0,-0.6784068,-0.17236829,807.47253,876.3736,807.8755,811.0989,692.6374,925.9341,-0.02508544921875,0.058837890625,1.00518798828125,-1.18133544921875,2.9010009765625,0.46356201171875,4.225023443223443E8,3.5341992673992676E8,2409523.8095238092,80.21618,1,1.0,2.0,1.0,1.0,94.00
2025-10-22 15:38:39.113,0.8053413,0.0,-0.81264365,0.8678829,0.55005795,0.0,-0.19306284,0.44861794,0.6592398,0.0,0.023875568,0.5497669,0.42593956,0.0,-0.27451724,0.16004635,-0.25575024,0.0,-0.6784068,-0.17236829,795.38464,658.7912,805.8608,812.3077,791.3553,1187.4359,-0.02508544921875,0.058837890625,1.00518798828125,-1.18133544921875,2.9010009765625,0.46356201171875,4.225023443223443E8,3.5341992673992676E8,2409523.8095238092,80.21618,1,1.0,2.0,1.0,1.0,94.00
2025-10-22 15:38:39.113,0.8053413,0.0,-0.81264365,0.8678829,0.55005795,0.0,-0.19306284,0.44861794,0.6592398,0.0,0.023875568,0.5497669,0.42593956,0.0,-0.27451724,0.16004635,-0.25575024,0.0,-0.6784068,-0.17236829,789.7436,884.83514,812.3077,818.3516,990.80585,1124.9817,-0.02508544921875,0.058837890625,1.00518798828125,-1.18133544921875,2.9010009765625,0.46356201171875,4.225023443223443E8,3.5341992673992676E8,2409523.8095238092,80.21618,1,1.0,2.0,1.0,1.0,94.00
2025-10-22 15:38:39.113,0.8053413,0.0,-0.81264365,0.8678829,0.55005795,0.0,-0.19306284,0.44861794,0.6592398,0.0,0.023875568,0.5497669,0.42593956,0.0,-0.27451724,0.16004635,-0.25575024,0.0,-0.6784068,-0.17236829,796.99634,603.1868,809.4872,809.0842,906.99634,793.7729,-0.02508544921875,0.058837890625,1.00518798828125,-1.18133544921875,2.9010009765625,0.46356201171875,4.225023443223443E8,3.5341992673992676E8,2409523.8095238092,80.21618,1,1.0,2.0,1.0,1.0,94.00
2025-10-22 15:38:39.113,0.8053413,0.0,-0.81264365,0.8678829,0.55005795,0.0,-0.19306284,0.44861794,0.6592398,0.0,0.023875568,0.5497669,0.42593956,0.0,-0.27451724,0.16004635,-0.25575024,0.0,-0.6784068,-0.17236829,801.4286,497.61905,804.2491,800.6227,713.1868,575.38464,-0.02508544921875,0.058837890625,1.00518798828125,-1.18133544921875,2.9010009765625,0.46356201171875,4.225023443223443E8,3.5341992673992676E8,2409523.8095238092,80.21618,1,1.0,2.0,1.0,1.0,94.00
2025-10-22 15:38:39.114,0.8053413,0.0,-0.81264365,0.8678829,0.55005795,0.0,-0.19306284,0.44861794,0.6592398,0.0,0.023875568,0.5497669,0.42593956,0.0,-0.27451724,0.16004635,-0.25575024,0.0,-0.6784068,-0.17236829,799.011,445.64102,803.8461,800.6227,760.32965,582.6374,-0.02508544921875,0.058837890625,1.00518798828125,-1.18133544921875,2.9010009765625,0.46356201171875,4.225023443223443E8,3.5341992673992676E8,2409523.8095238092,80.21618,1,1.0,2.0,1.0,1.0,94.00
2025-10-22 15:38:39.114,0.8053413,0.0,-0.81264365,0.8678829,0.55005795,0.0,-0.19306284,0.44861794,0.6592398,0.0,0.023875568,0.5497669,0.42593956,0.0,-0.27451724,0.16004635,-0.25575024,0.0,-0.6784068,-0.17236829,799.011,1101.6117,806.26373,801.4286,887.6557,738.97437,-0.02508544921875,0.058837890625,1.00518798828125,-1.18133544921875,2.9010009765625,0.46356201171875,4.225023443223443E8,3.5341992673992676E8,2409523.8095238092,80.21618,1,1.0,2.0,1.0,1.0,94.00
2025-10-22 15:38:39.164,0.8053413,0.0,-0.81264365,0.8678829,0.55005795,0.0,-0.19306284,0.44861794,0.6592398,0.0,0.023875568,0.5497669,0.42593956,0.0,-0.27451724,0.16004635,-0.25575024,0.0,-0.6784068,-0.17236829,806.6667,1247.8755,807.47253,800.2198,1058.4982,933.1868,-0.0286865234375,0.05419921875,0.97930908203125,-1.33087158203125,4.029998779296875,2.27294921875,4.225023443223443E8,3.5341992673992676E8,2409523.8095238092,80.21618,1,1.0,2.0,1.0,1.0,94.00
2025-10-22 15:38:39.165,0.8053413,0.0,-0.81264365,0.8678829,0.55005795,0.0,-0.19306284,0.44861794,0.6592398,0.0,0.023875568,0.5497669,0.42593956,0.0,-0.27451724,0.16004635,-0.25575024,0.0,-0.6784068,-0.17236829,806.26373,327.17947,804.2491,793.7729,763.95605,653.1502,-0.0286865234375,0.05419921875,0.97930908203125,-1.33087158203125,4.029998779296875,2.27294921875,4.225023443223443E8,3.5341992673992676E8,2409523.8095238092,80.21618,1,1.0,2.0,1.0,1.0,94.00
2025-10-22 15:38:39.165,0.8053413,0.0,-0.81264365,0.8678829,0.55005795,0.0,-0.19306284,0.44861794,0.6592398,0.0,0.023875568,0.5497669,0.42593956,0.0,-0.27451724,0.16004635,-0.25575024,0.0,-0.6784068,-0.17236829,802.6374,552.01465,806.6667,797.3993,547.98535,481.50183,-0.0286865234375,0.05419921875,0.97930908203125,-1.33087158203125,4.029998779296875,2.27294921875,4.225023443223443E8,3.5341992673992676E8,2409523.8095238092,80.21618,1,1.0,2.0,1.0,1.0,94.00
2025-10-22 15:38:39.165,0.8053413,0.0,-0.81264365,0.8678829,0.55005795,0.0,-0.19306284,0.44861794,0.6592398,0.0,0.023875568,0.5497669,0.42593956,0.0,-0.27451724,0.16004635,-0.25575024,0.0,-0.6784068,-0.17236829,791.75824,1014.17584,807.8755,805.8608,851.79486,697.8755,-0.0286865234375,0.05419921875,0.97930908203125,-1.33087158203125,4.029998779296875,2.27294921875,4.225023443223443E8,3.5341992673992676E8,2409523.8095238092,80.21618,1,1.0,2.0,1.0,1.0,94.00
2025-10-22 15:38:39.166,0.8053413,0.0,-0.81264365,0.8678829,0.55005795,0.0,-0.19306284,0.44861794,0.6592398,0.0,0.023875568,0.5497669,0.42593956,0.0,-0.27451724,0.16004635,-0.25575024,0.0,-0.6784068,-0.17236829,796.1905,1386.4835,804.65204,801.8315,1051.2454,994.43225,-0.0286865234375,0.05419921875,0.97930908203125,-1.33087158203125,4.029998779296875,2.27294921875,4.225023443223443E8,3.5341992673992676E8,2409523.8095238092,80.21618,1,1.0,2.0,1.0,1.0,94.00
2025-10-22 15:38:39.166,0.8053413,0.0,-0.81264365,0.8678829,0.55005795,0.0,-0.19306284,0.44861794,0.6592398,0.0,0.023875568,0.5497669,0.42593956,0.0,-0.27451724,0.16004635,-0.25575024,0.0,-0.6784068,-0.17236829,803.8461,868.315,802.6374,794.17584,850.989,1212.4176,-0.0286865234375,0.05419921875,0.97930908203125,-1.33087158203125,4.029998779296875,2.27294921875,4.225023443223443E8,3.5341992673992676E8,2409523.8095238092,80.21618,1,1.0,2.0,1.0,1.0,94.00
2025-10-22 15:38:39.166,0.8053413,0.0,-0.81264365,0.8678829,0.55005795,0.0,-0.19306284,0.44861794,0.6592398,0.0,0.023875568,0.5497669,0.42593956,0.0,-0.27451724,0.16004635,-0.25575024,0.0,-0.6784068,-0.17236829,803.8461,531.06226,804.2491,793.7729,710.7692,1128.608,-0.0286865234375,0.05419921875,0.97930908203125,-1.33087158203125,4.029998779296875,2.27294921875,4.225023443223443E8,3.5341992673992676E8,2409523.8095238092,80.21618,1,1.0,2.0,1.0,1.0,94.00
2025-10-22 15:38:39.166,0.8053413,0.0,-0.81264365,0.8678829,0.55005795,0.0,-0.19306284,0.44861794,0.6592398,0.0,0.023875568,0.5497669,0.42593956,0.0,-0.27451724,0.16004635,-0.25575024,0.0,-0.6784068,-0.17236829,796.99634,545.56775,805.05493,799.41394,705.5311,933.1868,-0.0286865234375,0.05419921875,0.97930908203125,-1.33087158203125,4.029998779296875,2.27294921875,4.225023443223443E8,3.5341992673992676E8,2409523.8095238092,80.21618,1,1.0,2.0,1.0,1.0,94.00
2025-10-22 15:38:39.166,0.8053413,0.0,-0.81264365,0.8678829,0.55005795,0.0,-0.19306284,0.44861794,0.6592398,0.0,0.023875568,0.5497669,0.42593956,0.0,-0.27451724,0.16004635,-0.25575024,0.0,-0.6784068,-0.17236829,798.20514,1255.1282,808.2784,802.23444,1026.6666,1015.78754,-0.0286865234375,0.05419921875,0.97930908203125,-1.33087158203125,4.029998779296875,2.27294921875,4.225023443223443E8,3.5341992673992676E8,2409523.8095238092,80.21618,1,1.0,2.0,1.0,1.0,94.00
2025-10-22 15:38:39.167,0.82361037,0.0,-0.78385824,0.8724512,0.5560186,0.0,-0.2108251,0.4602109,0.6592398,0.0,0.010270763,0.61170083,0.43425733,0.0,-0.2463337,0.1796568,-0.21508387,0.0,-0.654467,-0.17558569,805.05493,591.9048,812.3077,799.81683,992.8205,869.92676,-0.0286865234375,0.05419921875,0.97930908203125,-1.33087158203125,4.029998779296875,2.27294921875,4.225023443223443E8,3.5341992673992676E8,2409523.8095238092,80.21618,1,1.0,2.0,1.0,1.0,94.00
2025-10-22 15:38:39.168,0.82361037,0.0,-0.78385824,0.8724512,0.5560186,0.0,-0.2108251,0.4602109,0.6592398,0.0,0.010270763,0.61170083,0.43425733,0.0,-0.2463337,0.1796568,-0.21508387,0.0,-0.654467,-0.17558569,803.44324,368.27838,809.89014,800.2198,732.1245,583.44324,-0.0286865234375,0.05419921875,0.97930908203125,-1.33087158203125,4.029998779296875,2.27294921875,4.225023443223443E8,3.5341992673992676E8,2409523.8095238092,80.21618,1,1.0,2.0,1.0,1.0,94.00
2025-10-22 15:38:39.168,0.82361037,0.0,-0.78385824,0.8724512,0.5560186,0.0,-0.2108251,0.4602109,0.6592398,0.0,0.010270763,0.61170083,0.43425733,0.0,-0.2463337,0.1796568,-0.21508387,0.0,-0.654467,-0.17558569,795.78754,514.5421,808.68134,804.65204,787.326,624.1392,-0.0286865234375,0.05419921875,0.97930908203125,-1.33087158203125,4.029998779296875,2.27294921875,4.225023443223443E8,3.5341992673992676E8,2409523.8095238092,80.21618,1,1.0,2.0,1.0,1.0,94.00
2025-10-22 15:38:39.199,0.82361037,0.0,-0.78385824,0.8724512,0.5560186,0.0,-0.2108251,0.4602109,0.6592398,0.0,0.010270763,0.61170083,0.43425733,0.0,-0.2463337,0.1796568,-0.21508387,0.0,-0.654467,-0.17558569,799.011,1207.9854,811.0989,808.68134,993.22345,824.3956,-0.0277099609375,0.0496826171875,0.9713134765625,-2.19818115234375,3.282318115234375,6.198272705078125,4.225023443223443E8,3.534739194139194E8,2469157.509157509,80.4071,1,1.0,2.0,1.0,1.0,94.00
2025-10-22 15:38:39.199,0.82361037,0.0,-0.78385824,0.8724512,0.5560186,0.0,-0.2108251,0.4602109,0.6592398,0.0,0.010270763,0.61170083,0.43425733,0.0,-0.2463337,0.1796568,-0.21508387,0.0,-0.654467,-0.17558569,809.0842,877.5824,814.7253,810.293,954.94507,820.3663,-0.0277099609375,0.0496826171875,0.9713134765625,-2.19818115234375,3.282318115234375,6.198272705078125,4.225023443223443E8,3.534739194139194E8,2469157.509157509,80.4071,1,1.0,2.0,1.0,1.0,94.00
2025-10-22 15:38:39.200,0.82361037,0.0,-0.78385824,0.8724512,0.5560186,0.0,-0.2108251,0.4602109,0.6592398,0.0,0.010270763,0.61170083,0.43425733,0.0,-0.2463337,0.1796568,-0.21508387,0.0,-0.654467,-0.17558569,806.6667,390.03662,811.50183,808.2784,643.8828,531.4652,-0.0277099609375,0.0496826171875,0.9713134765625,-2.19818115234375,3.282318115234375,6.198272705078125,4.225023443223443E8,3.534739194139194E8,2469157.509157509,80.4071,1,1.0,2.0,1.0,1.0,94.00
2025-10-22 15:38:39.200,0.82361037,0.0,-0.78385824,0.8724512,0.5560186,0.0,-0.2108251,0.4602109,0.6592398,0.0,0.010270763,0.61170083,0.43425733,0.0,-0.2463337,0.1796568,-0.21508387,0.0,-0.654467,-0.17558569,803.8461,616.8865,809.4872,807.0696,651.13556,566.9231,-0.0277099609375,0.0496826171875,0.9713134765625,-2.19818115234375,3.282318115234375,6.198272705078125,4.225023443223443E8,3.534739194139194E8,2469157.509157509,80.4071,1,1.0,2.0,1.0,1.0,94.00
2025-10-22 15:38:39.200,0.82361037,0.0,-0.78385824,0.8724512,0.5560186,0.0,-0.2108251,0.4602109,0.6592398,0.0,0.010270763,0.61170083,0.43425733,0.0,-0.2463337,0.1796568,-0.21508387,0.0,-0.654467,-0.17558569,802.23444,1184.6154,811.9048,809.0842,872.74725,875.56775,-0.0277099609375,0.0496826171875,0.9713134765625,-2.19818115234375,3.282318115234375,6.198272705078125,4.225023443223443E8,3.534739194139194E8,2469157.509157509,80.4071,1,1.0,2.0,1.0,1.0,94.00
2025-10-22 15:38:39.200,0.82361037,0.0,-0.78385824,0.8724512,0.5560186,0.0,-0.2108251,0.4602109,0.6592398,0.0,0.010270763,0.61170083,0.43425733,0.0,-0.2463337,0.1796568,-0.21508387,0.0,-0.654467,-0.17558569,806.6667,1386.0806,812.71063,811.0989,934.3956,1226.5201,-0.0277099609375,0.0496826171875,0.9713134765625,-2.19818115234375,3.282318115234375,6.198272705078125,4.225023443223443E8,3.534739194139194E8,2469157.509157509,80.4071,1,1.0,2.0,1.0,1.0,94.00
2025-10-22 15:38:39.201,0.82361037,0.0,-0.78385824,0.8724512,0.5560186,0.0,-0.2108251,0.4602109,0.6592398,0.0,0.010270763,0.61170083,0.43425733,0.0,-0.2463337,0.1796568,-0.21508387,0.0,-0.654467,-0.17558569,806.6667,498.4249,811.0989,807.0696,833.663,1184.2124,-0.0277099609375,0.0496826171875,0.9713134765625,-2.19818115234375,3.282318115234375,6.198272705078125,4.225023443223443E8,3.534739194139194E8,2469157.509157509,80.4071,1,1.0,2.0,1.0,1.0,94.00
2025-10-22 15:38:39.201,0.82361037,0.0,-0.78385824,0.8724512,0.5560186,0.0,-0.2108251,0.4602109,0.6592398,0.0,0.010270763,0.61170083,0.43425733,0.0,-0.2463337,0.1796568,-0.21508387,0.0,-0.654467,-0.17558569,801.02563,267.14285,808.2784,803.8461,784.5055,815.12823,-0.0277099609375,0.0496826171875,0.9713134765625,-2.19818115234375,3.282318115234375,6.198272705078125,4.225023443223443E8,3.534739194139194E8,2469157.509157509,80.4071,1,1.0,2.0,1.0,1.0,94.00
2025-10-22 15:38:39.201,0.82361037,0.0,-0.78385824,0.8724512,0.5560186,0.0,-0.2108251,0.4602109,0.6592398,0.0,0.010270763,0.61170083,0.43425733,0.0,-0.2463337,0.1796568,-0.21508387,0.0,-0.654467,-0.17558569,795.78754,769.19415,805.4579,806.26373,863.0769,624.94507,-0.0277099609375,0.0496826171875,0.9713134765625,-2.19818115234375,3.282318115234375,6.198272705078125,4.225023443223443E8,3.534739194139194E8,2469157.509157509,80.4071,1,1.0,2.0,1.0,1.0,94.00
2025-10-22 15:38:39.201,0.82361037,0.0,-0.78385824,0.8724512,0.5560186,0.0,-0.2108251,0.4602109,0.6592398,0.0,0.010270763,0.61170083,0.43425733,0.0,-0.2463337,0.1796568,-0.21508387,0.0,-0.654467,-0.17558569,799.41394,1371.978,807.47253,805.05493,1071.7949,855.42126,-0.0277099609375,0.0496826171875,0.9713134765625,-2.19818115234375,3.282318115234375,6.198272705078125,4.225023443223443E8,3.534739194139194E8,2469157.509157509,80.4071,1,1.0,2.0,1.0,1.0,94.00
2025-10-22 15:38:39.202,0.82361037,0.0,-0.78385824,0.8724512,0.5560186,0.0,-0.2108251,0.4602109,0.6592398,0.0,0.010270763,0.61170083,0.43425733,0.0,-0.2463337,0.1796568,-0.21508387,0.0,-0.654467,-0.17558569,806.26373,760.7326,809.89014,797.3993,896.9231,910.6227,-0.0277099609375,0.0496826171875,0.9713134765625,-2.19818115234375,3.282318115234375,6.198272705078125,4.225023443223443E8,3.534739194139194E8,2469157.509157509,80.4071,1,1.0,2.0,1.0,1.0,94.00
2025-10-22 15:38:39.202,0.82361037,0.0,-0.78385824,0.8724512,0.5560186,0.0,-0.2108251,0.4602109,0.6592398,0.0,0.010270763,0.61170083,0.43425733,0.0,-0.2463337,0.1796568,-0.21508387,0.0,-0.654467,-0.17558569,806.6667,592.71063,806.6667,794.17584,780.87915,820.7692,-0.0277099609375,0.0496826171875,0.9713134765625,-2.19818115234375,3.282318115234375,6.198272705078125,4.225023443223443E8,3.534739194139194E8,2469157.509157509,80.4071,1,1.0,2.0,1.0,1.0,94.00
2025-10-22 15:38:39.253,0.82361037,0.0,-0.78385824,0.8724512,0.5560186,0.0,-0.2108251,0.4602109,0.6592398,0.0,0.010270763,0.61170083,0.43425733,0.0,-0.2463337,0.1796568,-0.21508387,0.0,-0.654467,-0.17558569,793.7729,457.32602,805.05493,799.011,788.93774,551.6117,-0.04754638671875,0.0482177734375,0.97607421875,-4.3365478515625,4.725341796875,6.4898681640625,4.225023443223443E8,3.534739194139194E8,2469157.509157509,80.4071,1,1.0,2.0,1.0,1.0,94.00
2025-10-22 15:38:39.253,0.82361037,0.0,-0.78385824,0.8724512,0.5560186,0.0,-0.2108251,0.4602109,0.6592398,0.0,0.010270763,0.61170083,0.43425733,0.0,-0.2463337,0.1796568,-0.21508387,0.0,-0.654467,-0.17558569,792.5641,1283.3334,810.293,804.2491,964.21246,779.67035,-0.04754638671875,0.0482177734375,0.97607421875,-4.3365478515625,4.725341796875,6.4898681640625,4.225023443223443E8,3.534739194139194E8,2469157.509157509,80.4071,1,1.0,2.0,1.0,1.0,94.00
2025-10-22 15:38:39.254,0.82361037,0.0,-0.78385824,0.8724512,0.5560186,0.0,-0.2108251,0.4602109,0.6592398,0.0,0.010270763,0.61170083,0.43425733,0.0,-0.2463337,0.1796568,-0.21508387,0.0,-0.654467,-0.17558569,801.8315,835.2747,811.9048,801.8315,1014.9817,925.5311,-0.04754638671875,0.0482177734375,0.97607421875,-4.3365478515625,4.725341796875,6.4898681640625,4.225023443223443E8,3.534739194139194E8,2469157.509157509,80.4071,1,1.0,2.0,1.0,1.0,94.00
2025-10-22 15:38:39.254,0.82361037,0.0,-0.78385824,0.8724512,0.5560186,0.0,-0.2108251,0.4602109,0.6592398,0.0,0.010270763,0.61170083,0.43425733,0.0,-0.2463337,0.1796568,-0.21508387,0.0,-0.654467,-0.17558569,800.6227,410.989,807.0696,796.1905,774.83514,661.2088,-0.04754638671875,0.0482177734375,0.97607421875,-4.3365478515625,4.725341796875,6.4898681640625,4.225023443223443E8,3.534739194139194E8,2469157.509157509,80.4071,1,1.0,2.0,1.0,1.0,94.00
2025-10-22 15:38:39.254,0.82361037,0.0,-0.78385824,0.8724512,0.5560186,0.0,-0.2108251,0.4602109,0.6592398,0.0,0.010270763,0.61170083,0.43425733,0.0,-0.2463337,0.1796568,-0.21508387,0.0,-0.654467,-0.17558569,793.7729,739.7802,806.26373,799.41394,740.989,882.4176,-0.04754638671875,0.0482177734375,0.97607421875,-4.3365478515625,4.725341796875,6.4898681640625,4.225023443223443E8,3.534739194139194E8,2469157.509157509,80.4071,1,1.0,2.0,1.0,1.0,94.00
2025-10-22 15:38:39.254,0.82361037,0.0,-0.78385824,0.8724512,0.5560186,0.0,-0.2108251,0.4602109,0.6592398,0.0,0.010270763,0.61170083,0.43425733,0.0,-0.2463337,0.1796568,-0.21508387,0.0,-0.654467,-0.17558569,795.38464,1385.6776,807.47253,800.2198,1080.2565,1391.3187,-0.04754638671875,0.0482177734375,0.97607421875,-4.3365478515625,4.725341796875,6.4898681640625,4.225023443223443E8,3.534739194139194E8,2469157.509157509,80.4071,1,1.0,2.0,1.0,1.0,94.00
2025-10-22 15:38:39.255,0.82361037,0.0,-0.78385824,0.8724512,0.5560186,0.0,-0.2108251,0.4602109,0.6592398,0.0,0.010270763,0.61170083,0.43425733,0.0,-0.2463337,0.1796568,-0.21508387,0.0,-0.654467,-0.17558569,802.23444,853.8095,809.0842,794.57874,1069.3773,1385.6776,-0.04754638671875,0.0482177734375,0.97607421875,-4.3365478515625,4.725341796875,6.4898681640625,4.225023443223443E8,3.534739194139194E8,2469157.509157509,80.4071,1,1.0,2.0,1.0,1.0,94.00
2025-10-22 15:38:39.255,0.82361037,0.0,-0.78385824,0.8724512,0.5560186,0.0,-0.2108251,0.4602109,0.6592398,0.0,0.010270763,0.61170083,0.43425733,0.0,-0.2463337,0.1796568,-0.21508387,0.0,-0.654467,-0.17558569,804.65204,320.32968,809.0842,795.78754,748.24176,995.64105,-0.04754638671875,0.0482177734375,0.97607421875,-4.3365478515625,4.725341796875,6.4898681640625,4.225023443223443E8,3.534739194139194E8,2469157.509157509,80.4071,1,1.0,2.0,1.0,1.0,94.00
2025-10-22 15:38:39.255,0.82361037,0.0,-0.78385824,0.8724512,0.5560186,0.0,-0.2108251,0.4602109,0.6592398,0.0,0.010270763,0.61170083,0.43425733,0.0,-0.2463337,0.1796568,-0.21508387,0.0,-0.654467,-0.17558569,797.8022,252.23444,806.6667,798.60803,694.2491,567.72894,-0.04754638671875,0.0482177734375,0.97607421875,-4.3365478515625,4.725341796875,6.4898681640625,4.225023443223443E8,3.534739194139194E8,2469157.509157509,80.4071,1,1.0,2.0,1.0,1.0,94.00
2025-10-22 15:38:39.255,0.82361037,0.0,-0.78385824,0.8724512,0.5560186,0.0,-0.2108251,0.4602109,0.6592398,0.0,0.010270763,0.61170083,0.43425733,0.0,-0.2463337,0.1796568,-0.21508387,0.0,-0.654467,-0.17558569,795.38464,1212.8206,800.2198,797.8022,868.315,726.8865,-0.04754638671875,0.0482177734375,0.97607421875,-4.3365478515625,4.725341796875,6.4898681640625,4.225023443223443E8,3.534739194139194E8,2469157.509157509,80.4071,1,1.0,2.0,1.0,1.0,94.00
2025-10-22 15:38:39.255,0.82361037,0.0,-0.78385824,0.8724512,0.5560186,0.0,-0.2108251,0.4602109,0.6592398,0.0,0.010270763,0.61170083,0.43425733,0.0,-0.2463337,0.1796568,-0.21508387,0.0,-0.654467,-0.17558569,805.4579,1441.2821,803.8461,792.1612,1150.3663,1038.3517,-0.04754638671875,0.0482177734375,0.97607421875,-4.3365478515625,4.725341796875,6.4898681640625,4.225023443223443E8,3.534739194139194E8,2469157.509157509,80.4071,1,1.0,2.0,1.0,1.0,94.00
2025-10-22 15:38:39.256,0.83380747,0.0,-0.7305627,0.87220734,0.55915225,0.0,-0.23638918,0.4712093,0.6592398,0.0,-0.02777084,0.65270585,0.43007854,0.0,-0.21701595,0.20934123,-0.1976957,0.0,-0.6286583,-0.17473629,805.4579,359.81686,803.8461,790.54944,913.44324,776.4469,-0.04754638671875,0.0482177734375,0.97607421875,-4.3365478515625,4.725341796875,6.4898681640625,4.225023443223443E8,3.534739194139194E8,2469157.509157509,80.4071,1,1.0,2.0,1.0,1.0,94.00
2025-10-22 15:38:39.282,0.83380747,0.0,-0.7305627,0.87220734,0.55915225,0.0,-0.23638918,0.4712093,0.6592398,0.0,-0.02777084,0.65270585,0.43007854,0.0,-0.21701595,0.20934123,-0.1976957,0.0,-0.6286583,-0.17473629,803.8461,489.56042,799.41394,793.7729,692.23444,502.45422,-0.04754638671875,0.0482177734375,0.97607421875,-4.3365478515625,4.725341796875,6.4898681640625,4.225023443223443E8,3.535561172161172E8,2470769.2307692305,80.586845,1,1.0,2.0,1.0,1.0,94.00
2025-10-22 15:38:39.282,0.83380747,0.0,-0.7305627,0.87220734,0.55915225,0.0,-0.23638918,0.4712093,0.6592398,0.0,-0.02777084,0.65270585,0.43007854,0.0,-0.21701595,0.20934123,-0.1976957,0.0,-0.6286583,-0.17473629,799.41394,981.53845,801.4286,801.4286,790.9524,680.14655,-0.04754638671875,0.0482177734375,0.97607421875,-4.3365478515625,4.725341796875,6.4898681640625,4.225023443223443E8,3.535561172161172E8,2470769.2307692305,80.586845,1,1.0,2.0,1.0,1.0,94.00
2025-10-22 15:38:39.282,0.83380747,0.0,-0.7305627,0.87220734,0.55915225,0.0,-0.23638918,0.4712093,0.6592398,0.0,-0.02777084,0.65270585,0.43007854,0.0,-0.21701595,0.20934123,-0.1976957,0.0,-0.6286583,-0.17473629,801.4286,1395.751,804.2491,806.26373,1057.6923,1207.9854,-0.04754638671875,0.0482177734375,0.97607421875,-4.3365478515625,4.725341796875,6.4898681640625,4.225023443223443E8,3.535561172161172E8,2470769.2307692305,80.586845,1,1.0,2.0,1.0,1.0,94.00
2025-10-22 15:38:39.283,0.83380747,0.0,-0.7305627,0.87220734,0.55915225,0.0,-0.23638918,0.4712093,0.6592398,0.0,-0.02777084,0.65270585,0.43007854,0.0,-0.21701595,0.20934123,-0.1976957,0.0,-0.6286583,-0.17473629,802.23444,430.32968,801.4286,799.011,1004.5055,1003.69965,-0.04754638671875,0.0482177734375,0.97607421875,-4.3365478515625,4.725341796875,6.4898681640625,4.225023443223443E8,3.535561172161172E8,2470769.2307692305,80.586845,1,1.0,2.0,1.0,1.0,94.00
2025-10-22 15:38:39.283,0.83380747,0.0,-0.7305627,0.87220734,0.55915225,0.0,-0.23638918,0.4712093,0.6592398,0.0,-0.02777084,0.65270585,0.43007854,0.0,-0.21701595,0.20934123,-0.1976957,0.0,-0.6286583,-0.17473629,801.02563,423.88278,803.0403,799.011,735.34796,550.0,-0.04754638671875,0.0482177734375,0.97607421875,-4.3365478515625,4.725341796875,6.4898681640625,4.225023443223443E8,3.535561172161172E8,2470769.2307692305,80.586845,1,1.0,2.0,1.0,1.0,94.00
2025-10-22 15:38:39.283,0.83380747,0.0,-0.7305627,0.87220734,0.55915225,0.0,-0.23638918,0.4712093,0.6592398,0.0,-0.02777084,0.65270585,0.43007854,0.0,-0.21701595,0.20934123,-0.1976957,0.0,-0.6286583,-0.17473629,798.60803,1007.326,805.4579,803.8461,747.03296,904.9817,-0.04754638671875,0.0482177734375,0.97607421875,-4.3365478515625,4.725341796875,6.4898681640625,4.225023443223443E8,3.535561172161172E8,2470769.2307692305,80.586845,1,1.0,2.0,1.0,1.0,94.00
2025-10-22 15:38:39.283,0.83380747,0.0,-0.7305627,0.87220734,0.55915225,0.0,-0.23638918,0.4712093,0.6592398,0.0,-0.02777084,0.65270585,0.43007854,0.0,-0.21701595,0.20934123,-0.1976957,0.0,-0.6286583,-0.17473629,803.8461,1404.6154,807.0696,805.4579,1087.9121,1477.9487,-0.04754638671875,0.0482177734375,0.97607421875,-4.3365478515625,4.725341796875,6.4898681640625,4.225023443223443E8,3.535561172161172E8,2470769.2307692305,80.586845,1,1.0,2.0,1.0,1.0,94.00
2025-10-22 15:38:39.283,0.83380747,0.0,-0.7305627,0.87220734,0.55915225,0.0,-0.23638918,0.4712093,0.6592398,0.0,-0.02777084,0.65270585,0.43007854,0.0,-0.21701595,0.20934123,-0.1976957,0.0,-0.6286583,-0.17473629,809.4872,463.36996,807.0696,800.6227,1045.2014,1141.0989,-0.04754638671875,0.0482177734375,0.97607421875,-4.3365478515625,4.725341796875,6.4898681640625,4.225023443223443E8,3.535561172161172E8,2470769.2307692305,80.586845,1,1.0,2.0,1.0,1.0,94.00
2025-10-22 15:38:39.284,0.83380747,0.0,-0.7305627,0.87220734,0.55915225,0.0,-0.23638918,0.4712093,0.6592398,0.0,-0.02777084,0.65270585,0.43007854,0.0,-0.21701595,0.20934123,-0.1976957,0.0,-0.6286583,-0.17473629,805.8608,176.08058,801.8315,798.20514,767.98535,500.03662,-0.04754638671875,0.0482177734375,0.97607421875,-4.3365478515625,4.725341796875,6.4898681640625,4.225023443223443E8,3.535561172161172E8,2470769.2307692305,80.586845,1,1.0,2.0,1.0,1.0,94.00
2025-10-22 15:38:39.284,0.83380747,0.0,-0.7305627,0.87220734,0.55915225,0.0,-0.23638918,0.4712093,0.6592398,0.0,-0.02777084,0.65270585,0.43007854,0.0,-0.21701595,0.20934123,-0.1976957,0.0,-0.6286583,-0.17473629,803.0403,514.1392,800.6227,802.23444,669.2674,475.8608,-0.04754638671875,0.0482177734375,0.97607421875,-4.3365478515625,4.725341796875,6.4898681640625,4.225023443223443E8,3.535561172161172E8,2470769.2307692305,80.586845,1,1.0,2.0,1.0,1.0,94.00
2025-10-22 15:38:39.284,0.83380747,0.0,-0.7305627,0.87220734,0.55915225,0.0,-0.23638918,0.4712093,0.6592398,0.0,-0.02777084,0.65270585,0.43007854,0.0,-0.21701595,0.20934123,-0.1976957,0.0,-0.6286583,-0.17473629,801.8315,1198.3151,803.8461,805.05493,907.3993,829.6337,-0.04754638671875,0.0482177734375,0.97607421875,-4.3365478515625,4.725341796875,6.4898681640625,4.225023443223443E8,3.535561172161172E8,2470769.2307692305,80.586845,1,1.0,2.0,1.0,1.0,94.00
2025-10-22 15:38:39.284,0.83380747,0.0,-0.7305627,0.87220734,0.55915225,0.0,-0.23638918,0.4712093,0.6592398,0.0,-0.02777084,0.65270585,0.43007854,0.0,-0.21701595,0.20934123,-0.1976957,0.0,-0.6286583,-0.17473629,806.26373,1022.23444,804.65204,799.81683,1060.9158,956.55676,-0.04754638671875,0.0482177734375,0.97607421875,-4.3365478515625,4.725341796875,6.4898681640625,4.225023443223443E8,3.535561172161172E8,2470769.2307692305,80.586845,1,1.0,2.0,1.0,1.0,94.00
2025-10-22 15:38:39.330,0.83380747,0.0,-0.7305627,0.87220734,0.55915225,0.0,-0.23638918,0.4712093,0.6592398,0.0,-0.02777084,0.65270585,0.43007854,0.0,-0.21701595,0.20934123,-0.1976957,0.0,-0.6286583,-0.17473629,805.8608,455.7143,800.6227,794.57874,751.8681,700.696,-0.03277587890625,0.01385498046875,0.9937744140625,-5.869293212890625,1.592559814453125,6.901092529296875,4.225023443223443E8,3.535561172161172E8,2470769.2307692305,80.586845,1,1.0,2.0,1.0,1.0,94.00
2025-10-22 15:38:39.330,0.83380747,0.0,-0.7305627,0.87220734,0.55915225,0.0,-0.23638918,0.4712093,0.6592398,0.0,-0.02777084,0.65270585,0.43007854,0.0,-0.21701595,0.20934123,-0.1976957,0.0,-0.6286583,-0.17473629,799.81683,568.93774,801.02563,796.1905,661.6117,641.06226,-0.03277587890625,0.01385498046875,0.9937744140625,-5.869293212890625,1.592559814453125,6.901092529296875,4.225023443223443E8,3.535561172161172E8,2470769.2307692305,80.586845,1,1.0,2.0,1.0,1.0,94.00
2025-10-22 15:38:39.331,0.83380747,0.0,-0.7305627,0.87220734,0.55915225,0.0,-0.23638918,0.4712093,0.6592398,0.0,-0.02777084,0.65270585,0.43007854,0.0,-0.21701595,0.20934123,-0.1976957,0.0,-0.6286583,-0.17473629,793.7729,1051.6483,803.44324,796.5934,869.5238,807.47253,-0.03277587890625,0.01385498046875,0.9937744140625,-5.869293212890625,1.592559814453125,6.901092529296875,4.225023443223443E8,3.535561172161172E8,2470769.2307692305,80.586845,1,1.0,2.0,1.0,1.0,94.00
2025-10-22 15:38:39.331,0.83380747,0.0,-0.7305627,0.87220734,0.55915225,0.0,-0.23638918,0.4712093,0.6592398,0.0,-0.02777084,0.65270585,0.43007854,0.0,-0.21701595,0.20934123,-0.1976957,0.0,-0.6286583,-0.17473629,801.8315,1318.3883,805.05493,798.20514,1046.0073,931.1722,-0.03277587890625,0.01385498046875,0.9937744140625,-5.869293212890625,1.592559814453125,6.901092529296875,4.225023443223443E8,3.535561172161172E8,2470769.2307692305,80.586845,1,1.0,2.0,1.0,1.0,94.00
2025-10-22 15:38:39.331,0.83380747,0.0,-0.7305627,0.87220734,0.55915225,0.0,-0.23638918,0.4712093,0.6592398,0.0,-0.02777084,0.65270585,0.43007854,0.0,-0.21701595,0.20934123,-0.1976957,0.0,-0.6286583,-0.17473629,802.6374,649.12085,801.4286,794.57874,745.0183,802.23444,-0.03277587890625,0.01385498046875,0.9937744140625,-5.869293212890625,1.592559814453125,6.901092529296875,4.225023443223443E8,3.535561172161172E8,2470769.2307692305,80.586845,1,1.0,2.0,1.0,1.0,94.00
2025-10-22 15:38:39.331,0.83380747,0.0,-0.7305627,0.87220734,0.55915225,0.0,-0.23638918,0.4712093,0.6592398,0.0,-0.02777084,0.65270585,0.43007854,0.0,-0.21701595,0.20934123,-0.1976957,0.0,-0.6286583,-0.17473629,794.17584,809.4872,798.60803,792.1612,608.8278,943.2601,-0.03277587890625,0.01385498046875,0.9937744140625,-5.869293212890625,1.592559814453125,6.901092529296875,4.225023443223443E8,3.535561172161172E8,2470769.2307692305,80.586845,1,1.0,2.0,1.0,1.0,94.00
2025-10-22 15:38:39.332,0.83380747,0.0,-0.7305627,0.87220734,0.55915225,0.0,-0.23638918,0.4712093,0.6592398,0.0,-0.02777084,0.65270585,0.43007854,0.0,-0.21701595,0.20934123,-0.1976957,0.0,-0.6286583,-0.17473629,789.7436,693.8461,801.02563,797.8022,747.8388,1111.6849,-0.03277587890625,0.01385498046875,0.9937744140625,-5.869293212890625,1.592559814453125,6.901092529296875,4.225023443223443E8,3.535561172161172E8,2470769.2307692305,80.586845,1,1.0,2.0,1.0,1.0,94.00
2025-10-22 15:38:39.332,0.83380747,0.0,-0.7305627,0.87220734,0.55915225,0.0,-0.23638918,0.4712093,0.6592398,0.0,-0.02777084,0.65270585,0.43007854,0.0,-0.21701595,0.20934123,-0.1976957,0.0,-0.6286583,-0.17473629,800.2198,1248.6813,803.0403,803.0403,968.24176,1364.3224,-0.03277587890625,0.01385498046875,0.9937744140625,-5.869293212890625,1.592559814453125,6.901092529296875,4.225023443223443E8,3.535561172161172E8,2470769.2307692305,80.586845,1,1.0,2.0,1.0,1.0,94.00
2025-10-22 15:38:39.332,0.83380747,0.0,-0.7305627,0.87220734,0.55915225,0.0,-0.23638918,0.4712093,0.6592398,0.0,-0.02777084,0.65270585,0.43007854,0.0,-0.21701595,0.20934123,-0.1976957,0.0,-0.6286583,-0.17473629,806.26373,488.35165,803.44324,799.81683,820.3663,853.00366,-0.03277587890625,0.01385498046875,0.9937744140625,-5.869293212890625,1.592559814453125,6.901092529296875,4.225023443223443E8,3.535561172161172E8,2470769.2307692305,80.586845,1,1.0,2.0,1.0,1.0,94.00
2025-10-22 15:38:39.332,0.83380747,0.0,-0.7305627,0.87220734,0.55915225,0.0,-0.23638918,0.4712093,0.6592398,0.0,-0.02777084,0.65270585,0.43007854,0.0,-0.21701595,0.20934123,-0.1976957,0.0,-0.6286583,-0.17473629,806.6667,455.7143,798.60803,796.1905,547.5824,330.80585,-0.03277587890625,0.01385498046875,0.9937744140625,-5.869293212890625,1.592559814453125,6.901092529296875,4.225023443223443E8,3.535561172161172E8,2470769.2307692305,80.586845,1,1.0,2.0,1.0,1.0,94.00
2025-10-22 15:38:39.333,0.83380747,0.0,-0.7305627,0.87220734,0.55915225,0.0,-0.23638918,0.4712093,0.6592398,0.0,-0.02777084,0.65270585,0.43007854,0.0,-0.21701595,0.20934123,-0.1976957,0.0,-0.6286583,-0.17473629,797.3993,636.63007,793.36993,796.99634,700.696,527.4359,-0.03277587890625,0.01385498046875,0.9937744140625,-5.869293212890625,1.592559814453125,6.901092529296875,4.225023443223443E8,3.535561172161172E8,2470769.2307692305,80.586845,1,1.0,2.0,1.0,1.0,94.00
2025-10-22 15:38:39.333,0.83380747,0.0,-0.7305627,0.87220734,0.55915225,0.0,-0.23638918,0.4712093,0.6592398,0.0,-0.02777084,0.65270585,0.43007854,0.0,-0.21701595,0.20934123,-0.1976957,0.0,-0.6286583,-0.17473629,803.0403,1227.7289,794.57874,801.8315,904.9817,759.92676,-0.03277587890625,0.01385498046875,0.9937744140625,-5.869293212890625,1.592559814453125,6.901092529296875,4.225023443223443E8,3.535561172161172E8,2470769.2307692305,80.586845,1,1.0,2.0,1.0,1.0,94.00
2025-10-22 15:38:39.387,0.83380747,0.0,-0.7305627,0.87220734,0.55915225,0.0,-0.23638918,0.4712093,0.6592398,0.0,-0.02777084,0.65270585,0.43007854,0.0,-0.21701595,0.20934123,-0.1976957,0.0,-0.6286583,-0.17473629,811.0989,829.2308,798.20514,795.78754,854.21246,722.8571,-0.04058837890625,-0.0152587890625,0.99481201171875,-5.345916748046875,2.82623291015625,5.794525146484375,4.225023443223443E8,3.5361897435897434E8,2474798.5347985346,80.75607,1,1.0,2.0,1.0,1.0,94.00
2025-10-22 15:38:39.388,0.83424467,0.0,-0.6725739,0.86944807,0.5515142,0.0,-0.26750743,0.47484815,0.65699893,0.0,-0.056248344,0.71990216,0.42150015,0.0,-0.19670261,0.24168697,-0.20186774,0.0,-0.60845256,-0.17215951,804.65204,489.1575,796.1905,784.5055,672.49084,562.49084,-0.04058837890625,-0.0152587890625,0.99481201171875,-5.345916748046875,2.82623291015625,5.794525146484375,4.225023443223443E8,3.5361897435897434E8,2474798.5347985346,80.75607,1,1.0,2.0,1.0,1.0,94.00
2025-10-22 15:38:39.389,0.83424467,0.0,-0.6725739,0.86944807,0.5515142,0.0,-0.26750743,0.47484815,0.65699893,0.0,-0.056248344,0.71990216,0.42150015,0.0,-0.19670261,0.24168697,-0.20186774,0.0,-0.60845256,-0.17215951,796.1905,457.32602,797.8022,785.7143,664.43225,578.20514,-0.04058837890625,-0.0152587890625,0.99481201171875,-5.345916748046875,2.82623291015625,5.794525146484375,4.225023443223443E8,3.5361897435897434E8,2474798.5347985346,80.75607,1,1.0,2.0,1.0,1.0,94.00
2025-10-22 15:38:39.389,0.83424467,0.0,-0.6725739,0.86944807,0.5515142,0.0,-0.26750743,0.47484815,0.65699893,0.0,-0.056248344,0.71990216,0.42150015,0.0,-0.19670261,0.24168697,-0.20186774,0.0,-0.60845256,-0.17215951,789.34064,976.7033,798.20514,786.52014,917.0696,718.8278,-0.04058837890625,-0.0152587890625,0.99481201171875,-5.345916748046875,2.82623291015625,5.794525146484375,4.225023443223443E8,3.5361897435897434E8,2474798.5347985346,80.75607,1,1.0,2.0,1.0,1.0,94.00
2025-10-22 15:38:39.389,0.83424467,0.0,-0.6725739,0.86944807,0.5515142,0.0,-0.26750743,0.47484815,0.65699893,0.0,-0.056248344,0.71990216,0.42150015,0.0,-0.19670261,0.24168697,-0.20186774,0.0,-0.60845256,-0.17215951,803.0403,1207.1794,799.41394,793.7729,1018.20514,844.94507,-0.04058837890625,-0.0152587890625,0.99481201171875,-5.345916748046875,2.82623291015625,5.794525146484375,4.225023443223443E8,3.5361897435897434E8,2474798.5347985346,80.75607,1,1.0,2.0,1.0,1.0,94.00
2025-10-22 15:38:39.389,0.83424467,0.0,-0.6725739,0.86944807,0.5515142,0.0,-0.26750743,0.47484815,0.65699893,0.0,-0.056248344,0.71990216,0.42150015,0.0,-0.19670261,0.24168697,-0.20186774,0.0,-0.60845256,-0.17215951,800.2198,803.8461,802.6374,798.60803,705.9341,898.5348,-0.04058837890625,-0.0152587890625,0.99481201171875,-5.345916748046875,2.82623291015625,5.794525146484375,4.225023443223443E8,3.5361897435897434E8,2474798.5347985346,80.75607,1,1.0,2.0,1.0,1.0,94.00
2025-10-22 15:38:39.390,0.83424467,0.0,-0.6725739,0.86944807,0.5515142,0.0,-0.26750743,0.47484815,0.65699893,0.0,-0.056248344,0.71990216,0.42150015,0.0,-0.19670261,0.24168697,-0.20186774,0.0,-0.60845256,-0.17215951,779.2674,616.08057,806.26373,802.23444,655.9707,1002.8938,-0.04058837890625,-0.0152587890625,0.99481201171875,-5.345916748046875,2.82623291015625,5.794525146484375,4.225023443223443E8,3.5361897435897434E8,2474798.5347985346,80.75607,1,1.0,2.0,1.0,1.0,94.00
2025-10-22 15:38:39.390,0.83424467,0.0,-0.6725739,0.86944807,0.5515142,0.0,-0.26750743,0.47484815,0.65699893,0.0,-0.056248344,0.71990216,0.42150015,0.0,-0.19670261,0.24168697,-0.20186774,0.0,-0.60845256,-0.17215951,760.32965,628.5714,805.4579,805.8608,861.8681,874.7619,-0.04058837890625,-0.0152587890625,0.99481201171875,-5.345916748046875,2.82623291015625,5.794525146484375,4.225023443223443E8,3.5361897435897434E8,2474798.5347985346,80.75607,1,1.0,2.0,1.0,1.0,94.00
2025-10-22 15:38:39.390,0.83424467,0.0,-0.6725739,0.86944807,0.5515142,0.0,-0.26750743,0.47484815,0.65699893,0.0,-0.056248344,0.71990216,0.42150015,0.0,-0.19670261,0.24168697,-0.20186774,0.0,-0.60845256,-0.17215951,761.9414,1263.1868,805.8608,801.8315,967.4359,815.5311,-0.04058837890625,-0.0152587890625,0.99481201171875,-5.345916748046875,2.82623291015625,5.794525146484375,4.225023443223443E8,3.5361897435897434E8,2474798.5347985346,80.75607,1,1.0,2.0,1.0,1.0,94.00
2025-10-22 15:38:39.390,0.83424467,0.0,-0.6725739,0.86944807,0.5515142,0.0,-0.26750743,0.47484815,0.65699893,0.0,-0.056248344,0.71990216,0.42150015,0.0,-0.19670261,0.24168697,-0.20186774,0.0,-0.60845256,-0.17215951,773.22345,912.23444,801.8315,794.9817,788.93774,941.2454,-0.04058837890625,-0.0152587890625,0.99481201171875,-5.345916748046875,2.82623291015625,5.794525146484375,4.225023443223443E8,3.5361897435897434E8,2474798.5347985346,80.75607,1,1.0,2.0,1.0,1.0,94.00
2025-10-22 15:38:39.390,0.83424467,0.0,-0.6725739,0.86944807,0.5515142,0.0,-0.26750743,0.47484815,0.65699893,0.0,-0.056248344,0.71990216,0.42150015,0.0,-0.19670261,0.24168697,-0.20186774,0.0,-0.60845256,-0.17215951,778.46155,535.4945,797.8022,790.14655,758.71796,811.0989,-0.04058837890625,-0.0152587890625,0.99481201171875,-5.345916748046875,2.82623291015625,5.794525146484375,4.225023443223443E8,3.5361897435897434E8,2474798.5347985346,80.75607,1,1.0,2.0,1.0,1.0,94.00
2025-10-22 15:38:39.391,0.83424467,0.0,-0.6725739,0.86944807,0.5515142,0.0,-0.26750743,0.47484815,0.65699893,0.0,-0.056248344,0.71990216,0.42150015,0.0,-0.19670261,0.24168697,-0.20186774,0.0,-0.60845256,-0.17215951,774.83514,489.1575,801.4286,793.7729,821.978,599.5604,-0.04058837890625,-0.0152587890625,0.99481201171875,-5.345916748046875,2.82623291015625,5.794525146484375,4.225023443223443E8,3.5361897435897434E8,2474798.5347985346,80.75607,1,1.0,2.0,1.0,1.0,94.00
2025-10-22 15:38:39.419,0.83424467,0.0,-0.6725739,0.86944807,0.5515142,0.0,-0.26750743,0.47484815,0.65699893,0.0,-0.056248344,0.71990216,0.42150015,0.0,-0.19670261,0.24168697,-0.20186774,0.0,-0.60845256,-0.17215951,784.90845,1293.8096,808.2784,793.36993,1044.3956,841.7216,-0.05804443359375,-0.03118896484375,0.99383544921875,-2.803802490234375,6.83380126953125,2.833709716796875,4.225023443223443E8,3.5361897435897434E8,2474798.5347985346,80.75607,1,1.0,2.0,1.0,1.0,94.00
2025-10-22 15:38:39.420,0.83424467,0.0,-0.6725739,0.86944807,0.5515142,0.0,-0.26750743,0.47484815,0.65699893,0.0,-0.056248344,0.71990216,0.42150015,0.0,-0.19670261,0.24168697,-0.20186774,0.0,-0.60845256,-0.17215951,793.7729,721.2454,808.68134,790.54944,994.83514,867.9121,-0.05804443359375,-0.03118896484375,0.99383544921875,-2.803802490234375,6.83380126953125,2.833709716796875,4.225023443223443E8,3.5361897435897434E8,2474798.5347985346,80.75607,1,1.0,2.0,1.0,1.0,94.00
2025-10-22 15:38:39.420,0.83424467,0.0,-0.6725739,0.86944807,0.5515142,0.0,-0.26750743,0.47484815,0.65699893,0.0,-0.056248344,0.71990216,0.42150015,0.0,-0.19670261,0.24168697,-0.20186774,0.0,-0.60845256,-0.17215951,788.93774,559.2674,803.0403,784.5055,755.09155,648.71796,-0.05804443359375,-0.03118896484375,0.99383544921875,-2.803802490234375,6.83380126953125,2.833709716796875,4.225023443223443E8,3.5361897435897434E8,2474798.5347985346,80.75607,1,1.0,2.0,1.0,1.0,94.00
2025-10-22 15:38:39.420,0.83424467,0.0,-0.6725739,0.86944807,0.5515142,0.0,-0.26750743,0.47484815,0.65699893,0.0,-0.056248344,0.71990216,0.42150015,0.0,-0.19670261,0.24168697,-0.20186774,0.0,-0.60845256,-0.17215951,787.72894,467.39926,803.0403,788.5348,802.23444,641.4652,-0.05804443359375,-0.03118896484375,0.99383544921875,-2.803802490234375,6.83380126953125,2.833709716796875,4.225023443223443E8,3.5361897435897434E8,2474798.5347985346,80.75607,1,1.0,2.0,1.0,1.0,94.00
2025-10-22 15:38:39.421,0.83424467,0.0,-0.6725739,0.86944807,0.5515142,0.0,-0.26750743,0.47484815,0.65699893,0.0,-0.056248344,0.71990216,0.42150015,0.0,-0.19670261,0.24168697,-0.20186774,0.0,-0.60845256,-0.17215951,794.9817,1097.5824,807.8755,796.99634,992.8205,921.50183,-0.05804443359375,-0.03118896484375,0.99383544921875,-2.803802490234375,6.83380126953125,2.833709716796875,4.225023443223443E8,3.5361897435897434E8,2474798.5347985346,80.75607,1,1.0,2.0,1.0,1.0,94.00
2025-10-22 15:38:39.421,0.83424467,0.0,-0.6725739,0.86944807,0.5515142,0.0,-0.26750743,0.47484815,0.65699893,0.0,-0.056248344,0.71990216,0.42150015,0.0,-0.19670261,0.24168697,-0.20186774,0.0,-0.60845256,-0.17215951,806.6667,1122.967,810.293,795.38464,983.95605,1282.1245,-0.05804443359375,-0.03118896484375,0.99383544921875,-2.803802490234375,6.83380126953125,2.833709716796875,4.225023443223443E8,3.5361897435897434E8,2474798.5347985346,80.75607,1,1.0,2.0,1.0,1.0,94.00
2025-10-22 15:38:39.421,0.83424467,0.0,-0.6725739,0.86944807,0.5515142,0.0,-0.26750743,0.47484815,0.65699893,0.0,-0.056248344,0.71990216,0.42150015,0.0,-0.19670261,0.24168697,-0.20186774,0.0,-0.60845256,-0.17215951,806.6667,415.8242,804.2491,788.93774,769.19415,1152.7839,-0.05804443359375,-0.03118896484375,0.99383544921875,-2.803802490234375,6.83380126953125,2.833709716796875,4.225023443223443E8,3.5361897435897434E8,2474798.5347985346,80.75607,1,1.0,2.0,1.0,1.0,94.00
2025-10-22 15:38:39.421,0.83424467,0.0,-0.6725739,0.86944807,0.5515142,0.0,-0.26750743,0.47484815,0.65699893,0.0,-0.056248344,0.71990216,0.42150015,0.0,-0.19670261,0.24168697,-0.20186774,0.0,-0.60845256,-0.17215951,796.99634,289.70697,798.20514,789.34064,680.14655,913.0403,-0.05804443359375,-0.03118896484375,0.99383544921875,-2.803802490234375,6.83380126953125,2.833709716796875,4.225023443223443E8,3.5361897435897434E8,2474798.5347985346,80.75607,1,1.0,2.0,1.0,1.0,94.00
2025-10-22 15:38:39.422,0.83424467,0.0,-0.6725739,0.86944807,0.5515142,0.0,-0.26750743,0.47484815,0.65699893,0.0,-0.056248344,0.71990216,0.42150015,0.0,-0.19670261,0.24168697,-0.20186774,0.0,-0.60845256,-0.17215951,793.36993,992.01465,799.81683,794.17584,865.4945,831.2454,-0.05804443359375,-0.03118896484375,0.99383544921875,-2.803802490234375,6.83380126953125,2.833709716796875,4.225023443223443E8,3.5361897435897434E8,2474798.5347985346,80.75607,1,1.0,2.0,1.0,1.0,94.00
2025-10-22 15:38:39.422,0.83424467,0.0,-0.6725739,0.86944807,0.5515142,0.0,-0.26750743,0.47484815,0.65699893,0.0,-0.056248344,0.71990216,0.42150015,0.0,-0.19670261,0.24168697,-0.20186774,0.0,-0.60845256,-0.17215951,799.41394,1152.381,806.6667,797.8022,953.73627,799.81683,-0.05804443359375,-0.03118896484375,0.99383544921875,-2.803802490234375,6.83380126953125,2.833709716796875,4.225023443223443E8,3.5361897435897434E8,2474798.5347985346,80.75607,1,1.0,2.0,1.0,1.0,94.00
2025-10-22 15:38:39.422,0.83424467,0.0,-0.6725739,0.86944807,0.5515142,0.0,-0.26750743,0.47484815,0.65699893,0.0,-0.056248344,0.71990216,0.42150015,0.0,-0.19670261,0.24168697,-0.20186774,0.0,-0.60845256,-0.17215951,804.2491,494.79852,806.26373,796.99634,749.85345,645.89746,-0.05804443359375,-0.03118896484375,0.99383544921875,-2.803802490234375,6.83380126953125,2.833709716796875,4.225023443223443E8,3.5361897435897434E8,2474798.5347985346,80.75607,1,1.0,2.0,1.0,1.0,94.00
2025-10-22 15:38:39.422,0.83424467,0.0,-0.6725739,0.86944807,0.5515142,0.0,-0.26750743,0.47484815,0.65699893,0.0,-0.056248344,0.71990216,0.42150015,0.0,-0.19670261,0.24168697,-0.20186774,0.0,-0.60845256,-0.17215951,803.0403,505.67764,804.65204,795.38464,741.39197,533.0769,-0.05804443359375,-0.03118896484375,0.99383544921875,-2.803802490234375,6.83380126953125,2.833709716796875,4.225023443223443E8,3.5361897435897434E8,2474798.5347985346,80.75607,1,1.0,2.0,1.0,1.0,94.00
2025-10-22 15:38:39.476,0.83424467,0.0,-0.6725739,0.86944807,0.5515142,0.0,-0.26750743,0.47484815,0.65699893,0.0,-0.056248344,0.71990216,0.42150015,0.0,-0.19670261,0.24168697,-0.20186774,0.0,-0.60845256,-0.17215951,795.38464,834.0659,806.6667,802.6374,846.1539,596.337,-0.08404541015625,-0.01483154296875,0.9796142578125,3.349609375,6.631927490234375,4.0673828125,4.225023443223443E8,3.5375194139194137E8,2470769.2307692305,80.915405,1,1.0,2.0,1.0,1.0,94.00
2025-10-22 15:38:39.477,0.83424467,0.0,-0.6725739,0.86944807,0.5515142,0.0,-0.26750743,0.47484815,0.65699893,0.0,-0.056248344,0.71990216,0.42150015,0.0,-0.19670261,0.24168697,-0.20186774,0.0,-0.60845256,-0.17215951,802.23444,1367.5458,811.9048,805.05493,1088.3151,974.2857,-0.08404541015625,-0.01483154296875,0.9796142578125,3.349609375,6.631927490234375,4.0673828125,4.225023443223443E8,3.5375194139194137E8,2470769.2307692305,80.915405,1,1.0,2.0,1.0,1.0,94.00
2025-10-22 15:38:39.477,0.83424467,0.0,-0.6725739,0.86944807,0.5515142,0.0,-0.26750743,0.47484815,0.65699893,0.0,-0.056248344,0.71990216,0.42150015,0.0,-0.19670261,0.24168697,-0.20186774,0.0,-0.60845256,-0.17215951,810.293,535.89746,815.9341,805.05493,967.4359,840.5128,-0.08404541015625,-0.01483154296875,0.9796142578125,3.349609375,6.631927490234375,4.0673828125,4.225023443223443E8,3.5375194139194137E8,2470769.2307692305,80.915405,1,1.0,2.0,1.0,1.0,94.00
2025-10-22 15:38:39.477,0.8257183,0.0,-0.5865834,0.8645194,0.5238659,0.0,-0.30422145,0.45950964,0.6457065,0.0,-0.035772454,0.77146876,0.41433787,0.0,-0.18696514,0.2649409,-0.21325612,0.0,-0.5950156,-0.17254707,812.71063,629.3773,815.5311,812.3077,788.93774,640.65936,-0.08404541015625,-0.01483154296875,0.9796142578125,3.349609375,6.631927490234375,4.0673828125,4.225023443223443E8,3.5375194139194137E8,2470769.2307692305,80.915405,1,1.0,2.0,1.0,1.0,94.00
2025-10-22 15:38:39.478,0.8257183,0.0,-0.5865834,0.8645194,0.5238659,0.0,-0.30422145,0.45950964,0.6457065,0.0,-0.035772454,0.77146876,0.41433787,0.0,-0.18696514,0.2649409,-0.21325612,0.0,-0.5950156,-0.17254707,803.0403,705.9341,809.89014,809.89014,850.989,676.9231,-0.08404541015625,-0.01483154296875,0.9796142578125,3.349609375,6.631927490234375,4.0673828125,4.225023443223443E8,3.5375194139194137E8,2470769.2307692305,80.915405,1,1.0,2.0,1.0,1.0,94.00
2025-10-22 15:38:39.479,0.8257183,0.0,-0.5865834,0.8645194,0.5238659,0.0,-0.30422145,0.45950964,0.6457065,0.0,-0.035772454,0.77146876,0.41433787,0.0,-0.18696514,0.2649409,-0.21325612,0.0,-0.5950156,-0.17254707,801.8315,1307.9121,807.0696,811.50183,986.3736,1182.6007,-0.08404541015625,-0.01483154296875,0.9796142578125,3.349609375,6.631927490234375,4.0673828125,4.225023443223443E8,3.5375194139194137E8,2470769.2307692305,80.915405,1,1.0,2.0,1.0,1.0,94.00
2025-10-22 15:38:39.479,0.8257183,0.0,-0.5865834,0.8645194,0.5238659,0.0,-0.30422145,0.45950964,0.6457065,0.0,-0.035772454,0.77146876,0.41433787,0.0,-0.18696514,0.2649409,-0.21325612,0.0,-0.5950156,-0.17254707,809.89014,624.1392,809.4872,815.5311,965.0183,1331.6849,-0.08404541015625,-0.01483154296875,0.9796142578125,3.349609375,6.631927490234375,4.0673828125,4.225023443223443E8,3.5375194139194137E8,2470769.2307692305,80.915405,1,1.0,2.0,1.0,1.0,94.00
2025-10-22 15:38:39.479,0.8257183,0.0,-0.5865834,0.8645194,0.5238659,0.0,-0.30422145,0.45950964,0.6457065,0.0,-0.035772454,0.77146876,0.41433787,0.0,-0.18696514,0.2649409,-0.21325612,0.0,-0.5950156,-0.17254707,806.26373,0.0,805.4579,805.4579,685.38464,682.96704,-0.08404541015625,-0.01483154296875,0.9796142578125,3.349609375,6.631927490234375,4.0673828125,4.225023443223443E8,3.5375194139194137E8,2470769.2307692305,80.915405,1,1.0,2.0,1.0,1.0,94.00
2025-10-22 15:38:39.479,0.8257183,0.0,-0.5865834,0.8645194,0.5238659,0.0,-0.30422145,0.45950964,0.6457065,0.0,-0.035772454,0.77146876,0.41433787,0.0,-0.18696514,0.2649409,-0.21325612,0.0,-0.5950156,-0.17254707,798.20514,398.09525,803.44324,804.2491,630.989,420.65933,-0.08404541015625,-0.01483154296875,0.9796142578125,3.349609375,6.631927490234375,4.0673828125,4.225023443223443E8,3.5375194139194137E8,2470769.2307692305,80.915405,1,1.0,2.0,1.0,1.0,94.00
2025-10-22 15:38:39.480,0.8257183,0.0,-0.5865834,0.8645194,0.5238659,0.0,-0.30422145,0.45950964,0.6457065,0.0,-0.035772454,0.77146876,0.41433787,0.0,-0.18696514,0.2649409,-0.21325612,0.0,-0.5950156,-0.17254707,801.4286,1370.3663,807.0696,812.3077,950.9158,786.1172,-0.08404541015625,-0.01483154296875,0.9796142578125,3.349609375,6.631927490234375,4.0673828125,4.225023443223443E8,3.5375194139194137E8,2470769.2307692305,80.915405,1,1.0,2.0,1.0,1.0,94.00
2025-10-22 15:38:39.480,0.8257183,0.0,-0.5865834,0.8645194,0.5238659,0.0,-0.30422145,0.45950964,0.6457065,0.0,-0.035772454,0.77146876,0.41433787,0.0,-0.18696514,0.2649409,-0.21325612,0.0,-0.5950156,-0.17254707,811.50183,917.8755,807.47253,813.5165,992.01465,882.4176,-0.08404541015625,-0.01483154296875,0.9796142578125,3.349609375,6.631927490234375,4.0673828125,4.225023443223443E8,3.5375194139194137E8,2470769.2307692305,80.915405,1,1.0,2.0,1.0,1.0,94.00
2025-10-22 15:38:39.480,0.8257183,0.0,-0.5865834,0.8645194,0.5238659,0.0,-0.30422145,0.45950964,0.6457065,0.0,-0.035772454,0.77146876,0.41433787,0.0,-0.18696514,0.2649409,-0.21325612,0.0,-0.5950156,-0.17254707,817.1429,354.9817,806.26373,811.50183,653.95605,555.64105,-0.08404541015625,-0.01483154296875,0.9796142578125,3.349609375,6.631927490234375,4.0673828125,4.225023443223443E8,3.5375194139194137E8,2470769.2307692305,80.915405,1,1.0,2.0,1.0,1.0,94.00
2025-10-22 15:38:39.530,0.8257183,0.0,-0.5865834,0.8645194,0.5238659,0.0,-0.30422145,0.45950964,0.6457065,0.0,-0.035772454,0.77146876,0.41433787,0.0,-0.18696514,0.2649409,-0.21325612,0.0,-0.5950156,-0.17254707,809.89014,434.7619,803.44324,808.68134,612.4542,421.4652,-0.08404541015625,-0.01483154296875,0.9796142578125,3.349609375,6.631927490234375,4.0673828125,4.225023443223443E8,3.5375194139194137E8,2470769.2307692305,80.915405,1,1.0,2.0,1.0,1.0,94.00
2025-10-22 15:38:39.531,0.8257183,0.0,-0.5865834,0.8645194,0.5238659,0.0,-0.30422145,0.45950964,0.6457065,0.0,-0.035772454,0.77146876,0.41433787,0.0,-0.18696514,0.2649409,-0.21325612,0.0,-0.5950156,-0.17254707,801.8315,1176.1538,805.8608,810.696,790.14655,659.59705,-0.08404541015625,-0.01483154296875,0.9796142578125,3.349609375,6.631927490234375,4.0673828125,4.225023443223443E8,3.5375194139194137E8,2470769.2307692305,80.915405,1,1.0,2.0,1.0,1.0,94.00
2025-10-22 15:38:39.531,0.8257183,0.0,-0.5865834,0.8645194,0.5238659,0.0,-0.30422145,0.45950964,0.6457065,0.0,-0.035772454,0.77146876,0.41433787,0.0,-0.18696514,0.2649409,-0.21325612,0.0,-0.5950156,-0.17254707,809.4872,1338.9377,808.2784,811.50183,1011.3553,919.0842,-0.08404541015625,-0.01483154296875,0.9796142578125,3.349609375,6.631927490234375,4.0673828125,4.225023443223443E8,3.5375194139194137E8,2470769.2307692305,80.915405,1,1.0,2.0,1.0,1.0,94.00
2025-10-22 15:38:39.531,0.8257183,0.0,-0.5865834,0.8645194,0.5238659,0.0,-0.30422145,0.45950964,0.6457065,0.0,-0.035772454,0.77146876,0.41433787,0.0,-0.18696514,0.2649409,-0.21325612,0.0,-0.5950156,-0.17254707,812.71063,453.69965,804.2491,805.05493,778.0586,707.5458,-0.08404541015625,-0.01483154296875,0.9796142578125,3.349609375,6.631927490234375,4.0673828125,4.225023443223443E8,3.5375194139194137E8,2470769.2307692305,80.915405,1,1.0,2.0,1.0,1.0,94.00
2025-10-22 15:38:39.531,0.8257183,0.0,-0.5865834,0.8645194,0.5238659,0.0,-0.30422145,0.45950964,0.6457065,0.0,-0.035772454,0.77146876,0.41433787,0.0,-0.18696514,0.2649409,-0.21325612,0.0,-0.5950156,-0.17254707,815.9341,880.0,801.02563,809.4872,588.2784,854.61536,-0.08404541015625,-0.01483154296875,0.9796142578125,3.349609375,6.631927490234375,4.0673828125,4.225023443223443E8,3.5375194139194137E8,2470769.2307692305,80.915405,1,1.0,2.0,1.0,1.0,94.00
2025-10-22 15:38:39.532,0.8257183,0.0,-0.5865834,0.8645194,0.5238659,0.0,-0.30422145,0.45950964,0.6457065,0.0,-0.035772454,0.77146876,0.41433787,0.0,-0.18696514,0.2649409,-0.21325612,0.0,-0.5950156,-0.17254707,811.0989,956.55676,799.011,813.5165,782.49084,1174.9451,-0.08404541015625,-0.01483154296875,0.9796142578125,3.349609375,6.631927490234375,4.0673828125,4.225023443223443E8,3.5375194139194137E8,2470769.2307692305,80.915405,1,1.0,2.0,1.0,1.0,94.00
2025-10-22 15:38:39.532,0.8257183,0.0,-0.5865834,0.8645194,0.5238659,0.0,-0.30422145,0.45950964,0.6457065,0.0,-0.035772454,0.77146876,0.41433787,0.0,-0.18696514,0.2649409,-0.21325612,0.0,-0.5950156,-0.17254707,808.68134,1288.1685,798.60803,807.47253,990.0,1399.7803,-0.08404541015625,-0.01483154296875,0.9796142578125,3.349609375,6.631927490234375,4.0673828125,4.225023443223443E8,3.5375194139194137E8,2470769.2307692305,80.915405,1,1.0,2.0,1.0,1.0,94.00
2025-10-22 15:38:39.532,0.8257183,0.0,-0.5865834,0.8645194,0.5238659,0.0,-0.30422145,0.45950964,0.6457065,0.0,-0.035772454,0.77146876,0.41433787,0.0,-0.18696514,0.2649409,-0.21325612,0.0,-0.5950156,-0.17254707,810.696,458.93774,794.57874,800.6227,828.8278,1146.7399,-0.08404541015625,-0.01483154296875,0.9796142578125,3.349609375,6.631927490234375,4.0673828125,4.225023443223443E8,3.5375194139194137E8,2470769.2307692305,80.915405,1,1.0,2.0,1.0,1.0,94.00
2025-10-22 15:38:39.532,0.8257183,0.0,-0.5865834,0.8645194,0.5238659,0.0,-0.30422145,0.45950964,0.6457065,0.0,-0.035772454,0.77146876,0.41433787,0.0,-0.18696514,0.2649409,-0.21325612,0.0,-0.5950156,-0.17254707,817.1429,199.45055,796.99634,800.6227,665.64105,561.28204,-0.08404541015625,-0.01483154296875,0.9796142578125,3.349609375,6.631927490234375,4.0673828125,4.225023443223443E8,3.5375194139194137E8,2470769.2307692305,80.915405,1,1.0,2.0,1.0,1.0,94.00
2025-10-22 15:38:39.533,0.8257183,0.0,-0.5865834,0.8645194,0.5238659,0.0,-0.30422145,0.45950964,0.6457065,0.0,-0.035772454,0.77146876,0.41433787,0.0,-0.18696514,0.2649409,-0.21325612,0.0,-0.5950156,-0.17254707,814.7253,687.8022,800.6227,808.2784,765.56775,526.63007,-0.08404541015625,-0.01483154296875,0.9796142578125,3.349609375,6.631927490234375,4.0673828125,4.225023443223443E8,3.5375194139194137E8,2470769.2307692305,80.915405,1,1.0,2.0,1.0,1.0,94.00
2025-10-22 15:38:39.533,0.8257183,0.0,-0.5865834,0.8645194,0.5238659,0.0,-0.30422145,0.45950964,0.6457065,0.0,-0.035772454,0.77146876,0.41433787,0.0,-0.18696514,0.2649409,-0.21325612,0.0,-0.5950156,-0.17254707,809.4872,1349.8169,801.4286,814.3223,1004.90845,842.9304,-0.08404541015625,-0.01483154296875,0.9796142578125,3.349609375,6.631927490234375,4.0673828125,4.225023443223443E8,3.5375194139194137E8,2470769.2307692305,80.915405,1,1.0,2.0,1.0,1.0,94.00
2025-10-22 15:38:39.533,0.8257183,0.0,-0.5865834,0.8645194,0.5238659,0.0,-0.30422145,0.45950964,0.6457065,0.0,-0.035772454,0.77146876,0.41433787,0.0,-0.18696514,0.2649409,-0.21325612,0.0,-0.5950156,-0.17254707,814.3223,661.2088,805.4579,811.0989,943.2601,791.75824,-0.08404541015625,-0.01483154296875,0.9796142578125,3.349609375,6.631927490234375,4.0673828125,4.225023443223443E8,3.5375194139194137E8,2470769.2307692305,80.915405,1,1.0,2.0,1.0,1.0,94.00
2025-10-22 15:38:39.587,0.8257183,0.0,-0.5865834,0.8645194,0.5238659,0.0,-0.30422145,0.45950964,0.6457065,0.0,-0.035772454,0.77146876,0.41433787,0.0,-0.18696514,0.2649409,-0.21325612,0.0,-0.5950156,-0.17254707,820.7692,346.52014,803.0403,804.2491,705.5311,480.69598,-0.1031494140625,0.02655029296875,0.96630859375,4.17205810546875,5.443115234375,3.267364501953125,4.225023443223443E8,3.537720879120879E8,2471575.0915750917,81.06541,1,1.0,2.0,1.0,1.0,94.00
2025-10-22 15:38:39.587,0.8257183,0.0,-0.5865834,0.8645194,0.5238659,0.0,-0.30422145,0.45950964,0.6457065,0.0,-0.035772454,0.77146876,0.41433787,0.0,-0.18696514,0.2649409,-0.21325612,0.0,-0.5950156,-0.17254707,817.5458,625.34796,804.2491,806.26373,782.49084,570.14655,-0.1031494140625,0.02655029296875,0.96630859375,4.17205810546875,5.443115234375,3.267364501953125,4.225023443223443E8,3.537720879120879E8,2471575.0915750917,81.06541,1,1.0,2.0,1.0,1.0,94.00
2025-10-22 15:38:39.587,0.8257183,0.0,-0.5865834,0.8645194,0.5238659,0.0,-0.30422145,0.45950964,0.6457065,0.0,-0.035772454,0.77146876,0.41433787,0.0,-0.18696514,0.2649409,-0.21325612,0.0,-0.5950156,-0.17254707,809.4872,1292.1978,807.8755,811.9048,987.5824,882.01465,-0.1031494140625,0.02655029296875,0.96630859375,4.17205810546875,5.443115234375,3.267364501953125,4.225023443223443E8,3.537720879120879E8,2471575.0915750917,81.06541,1,1.0,2.0,1.0,1.0,94.00
2025-10-22 15:38:39.588,0.8257183,0.0,-0.5865834,0.8645194,0.5238659,0.0,-0.30422145,0.45950964,0.6457065,0.0,-0.035772454,0.77146876,0.41433787,0.0,-0.18696514,0.2649409,-0.21325612,0.0,-0.5950156,-0.17254707,815.9341,1059.7069,808.68134,803.44324,1095.9707,990.40295,-0.1031494140625,0.02655029296875,0.96630859375,4.17205810546875,5.443115234375,3.267364501953125,4.225023443223443E8,3.537720879120879E8,2471575.0915750917,81.06541,1,1.0,2.0,1.0,1.0,94.00
2025-10-22 15:38:39.588,0.8257183,0.0,-0.5865834,0.8645194,0.5238659,0.0,-0.30422145,0.45950964,0.6457065,0.0,-0.035772454,0.77146876,0.41433787,0.0,-0.18696514,0.2649409,-0.21325612,0.0,-0.5950156,-0.17254707,820.3663,377.94873,804.2491,797.3993,813.5165,734.94507,-0.1031494140625,0.02655029296875,0.96630859375,4.17205810546875,5.443115234375,3.267364501953125,4.225023443223443E8,3.537720879120879E8,2471575.0915750917,81.06541,1,1.0,2.0,1.0,1.0,94.00
2025-10-22 15:38:39.588,0.8143384,0.0,-0.47651193,0.85902375,0.47532904,0.0,-0.34772384,0.42088762,0.6381987,0.0,-0.008882692,0.78424686,0.40919256,0.0,-0.18245843,0.27301827,-0.2174632,0.0,-0.5875057,-0.17751561,813.1135,817.1429,799.81683,799.011,614.87177,859.0476,-0.1031494140625,0.02655029296875,0.96630859375,4.17205810546875,5.443115234375,3.267364501953125,4.225023443223443E8,3.537720879120879E8,2471575.0915750917,81.06541,1,1.0,2.0,1.0,1.0,94.00
2025-10-22 15:38:39.589,0.8143384,0.0,-0.47651193,0.85902375,0.47532904,0.0,-0.34772384,0.42088762,0.6381987,0.0,-0.008882692,0.78424686,0.40919256,0.0,-0.18245843,0.27301827,-0.2174632,0.0,-0.5875057,-0.17751561,804.65204,1130.6227,803.44324,806.26373,840.9158,1192.2711,-0.1031494140625,0.02655029296875,0.96630859375,4.17205810546875,5.443115234375,3.267364501953125,4.225023443223443E8,3.537720879120879E8,2471575.0915750917,81.06541,1,1.0,2.0,1.0,1.0,94.00
2025-10-22 15:38:39.590,0.8143384,0.0,-0.47651193,0.85902375,0.47532904,0.0,-0.34772384,0.42088762,0.6381987,0.0,-0.008882692,0.78424686,0.40919256,0.0,-0.18245843,0.27301827,-0.2174632,0.0,-0.5875057,-0.17751561,808.68134,1135.4579,805.8608,805.8608,1044.3956,1244.249,-0.1031494140625,0.02655029296875,0.96630859375,4.17205810546875,5.443115234375,3.267364501953125,4.225023443223443E8,3.537720879120879E8,2471575.0915750917,81.06541,1,1.0,2.0,1.0,1.0,94.00
2025-10-22 15:38:39.590,0.8143384,0.0,-0.47651193,0.85902375,0.47532904,0.0,-0.34772384,0.42088762,0.6381987,0.0,-0.008882692,0.78424686,0.40919256,0.0,-0.18245843,0.27301827,-0.2174632,0.0,-0.5875057,-0.17751561,811.0989,345.7143,806.6667,800.2198,840.10986,705.12823,-0.1031494140625,0.02655029296875,0.96630859375,4.17205810546875,5.443115234375,3.267364501953125,4.225023443223443E8,3.537720879120879E8,2471575.0915750917,81.06541,1,1.0,2.0,1.0,1.0,94.00
2025-10-22 15:38:39.590,0.8143384,0.0,-0.47651193,0.85902375,0.47532904,0.0,-0.34772384,0.42088762,0.6381987,0.0,-0.008882692,0.78424686,0.40919256,0.0,-0.18245843,0.27301827,-0.2174632,0.0,-0.5875057,-0.17751561,809.4872,684.9817,806.26373,802.6374,718.8278,488.35165,-0.1031494140625,0.02655029296875,0.96630859375,4.17205810546875,5.443115234375,3.267364501953125,4.225023443223443E8,3.537720879120879E8,2471575.0915750917,81.06541,1,1.0,2.0,1.0,1.0,94.00
2025-10-22 15:38:39.590,0.8143384,0.0,-0.47651193,0.85902375,0.47532904,0.0,-0.34772384,0.42088762,0.6381987,0.0,-0.008882692,0.78424686,0.40919256,0.0,-0.18245843,0.27301827,-0.2174632,0.0,-0.5875057,-0.17751561,794.57874,931.1722,803.0403,807.0696,869.5238,671.685,-0.1031494140625,0.02655029296875,0.96630859375,4.17205810546875,5.443115234375,3.267364501953125,4.225023443223443E8,3.537720879120879E8,2471575.0915750917,81.06541,1,1.0,2.0,1.0,1.0,94.00
2025-10-22 15:38:39.590,0.8143384,0.0,-0.47651193,0.85902375,0.47532904,0.0,-0.34772384,0.42088762,0.6381987,0.0,-0.008882692,0.78424686,0.40919256,0.0,-0.18245843,0.27301827,-0.2174632,0.0,-0.5875057,-0.17751561,794.57874,1330.8792,803.8461,807.0696,1043.9927,878.3883,-0.1031494140625,0.02655029296875,0.96630859375,4.17205810546875,5.443115234375,3.267364501953125,4.225023443223443E8,3.537720879120879E8,2471575.0915750917,81.06541,1,1.0,2.0,1.0,1.0,94.00
2025-10-22 15:38:39.618,0.8143384,0.0,-0.47651193,0.85902375,0.47532904,0.0,-0.34772384,0.42088762,0.6381987,0.0,-0.008882692,0.78424686,0.40919256,0.0,-0.18245843,0.27301827,-0.2174632,0.0,-0.5875057,-0.17751561,803.8461,642.674,805.8608,806.6667,917.0696,799.81683,-0.10699462890625,0.03778076171875,0.97882080078125,5.39825439453125,2.52716064453125,-0.9271240234375,4.225023443223443E8,3.537720879120879E8,2471575.0915750917,81.06541,1,1.0,2.0,1.0,1.0,94.00
2025-10-22 15:38:39.619,0.8143384,0.0,-0.47651193,0.85902375,0.47532904,0.0,-0.34772384,0.42088762,0.6381987,0.0,-0.008882692,0.78424686,0.40919256,0.0,-0.18245843,0.27301827,-0.2174632,0.0,-0.5875057,-0.17751561,805.4579,457.72894,801.4286,801.8315,720.4396,582.23444,-0.10699462890625,0.03778076171875,0.97882080078125,5.39825439453125,2.52716064453125,-0.9271240234375,4.225023443223443E8,3.537720879120879E8,2471575.0915750917,81.06541,1,1.0,2.0,1.0,1.0,94.00
2025-10-22 15:38:39.619,0.8143384,0.0,-0.47651193,0.85902375,0.47532904,0.0,-0.34772384,0.42088762,0.6381987,0.0,-0.008882692,0.78424686,0.40919256,0.0,-0.18245843,0.27301827,-0.2174632,0.0,-0.5875057,-0.17751561,803.0403,657.1795,801.8315,805.8608,730.5128,672.49084,-0.10699462890625,0.03778076171875,0.97882080078125,5.39825439453125,2.52716064453125,-0.9271240234375,4.225023443223443E8,3.537720879120879E8,2471575.0915750917,81.06541,1,1.0,2.0,1.0,1.0,94.00
2025-10-22 15:38:39.619,0.8143384,0.0,-0.47651193,0.85902375,0.47532904,0.0,-0.34772384,0.42088762,0.6381987,0.0,-0.008882692,0.78424686,0.40919256,0.0,-0.18245843,0.27301827,-0.2174632,0.0,-0.5875057,-0.17751561,802.6374,1212.0146,804.2491,809.4872,992.01465,889.2674,-0.10699462890625,0.03778076171875,0.97882080078125,5.39825439453125,2.52716064453125,-0.9271240234375,4.225023443223443E8,3.537720879120879E8,2471575.0915750917,81.06541,1,1.0,2.0,1.0,1.0,94.00
2025-10-22 15:38:39.619,0.8143384,0.0,-0.47651193,0.85902375,0.47532904,0.0,-0.34772384,0.42088762,0.6381987,0.0,-0.008882692,0.78424686,0.40919256,0.0,-0.18245843,0.27301827,-0.2174632,0.0,-0.5875057,-0.17751561,805.05493,819.15753,805.4579,803.44324,910.6227,911.02563,-0.10699462890625,0.03778076171875,0.97882080078125,5.39825439453125,2.52716064453125,-0.9271240234375,4.225023443223443E8,3.537720879120879E8,2471575.0915750917,81.06541,1,1.0,2.0,1.0,1.0,94.00
2025-10-22 15:38:39.620,0.8143384,0.0,-0.47651193,0.85902375,0.47532904,0.0,-0.34772384,0.42088762,0.6381987,0.0,-0.008882692,0.78424686,0.40919256,0.0,-0.18245843,0.27301827,-0.2174632,0.0,-0.5875057,-0.17751561,807.8755,588.68134,807.0696,800.2198,719.2308,957.76556,-0.10699462890625,0.03778076171875,0.97882080078125,5.39825439453125,2.52716064453125,-0.9271240234375,4.225023443223443E8,3.537720879120879E8,2471575.0915750917,81.06541,1,1.0,2.0,1.0,1.0,94.00
2025-10-22 15:38:39.620,0.8143384,0.0,-0.47651193,0.85902375,0.47532904,0.0,-0.34772384,0.42088762,0.6381987,0.0,-0.008882692,0.78424686,0.40919256,0.0,-0.18245843,0.27301827,-0.2174632,0.0,-0.5875057,-0.17751561,802.6374,509.70697,807.47253,804.65204,784.10254,1118.5348,-0.10699462890625,0.03778076171875,0.97882080078125,5.39825439453125,2.52716064453125,-0.9271240234375,4.225023443223443E8,3.537720879120879E8,2471575.0915750917,81.06541,1,1.0,2.0,1.0,1.0,94.00
2025-10-22 15:38:39.620,0.8143384,0.0,-0.47651193,0.85902375,0.47532904,0.0,-0.34772384,0.42088762,0.6381987,0.0,-0.008882692,0.78424686,0.40919256,0.0,-0.18245843,0.27301827,-0.2174632,0.0,-0.5875057,-0.17751561,799.81683,981.53845,815.5311,814.7253,967.4359,1225.3114,-0.10699462890625,0.03778076171875,0.97882080078125,5.39825439453125,2.52716064453125,-0.9271240234375,4.225023443223443E8,3.537720879120879E8,2471575.0915750917,81.06541,1,1.0,2.0,1.0,1.0,94.00
2025-10-22 15:38:39.620,0.8143384,0.0,-0.47651193,0.85902375,0.47532904,0.0,-0.34772384,0.42088762,0.6381987,0.0,-0.008882692,0.78424686,0.40919256,0.0,-0.18245843,0.27301827,-0.2174632,0.0,-0.5875057,-0.17751561,803.8461,654.35895,819.9634,812.3077,1056.8865,915.8608,-0.10699462890625,0.03778076171875,0.97882080078125,5.39825439453125,2.52716064453125,-0.9271240234375,4.225023443223443E8,3.537720879120879E8,2471575.0915750917,81.06541,1,1.0,2.0,1.0,1.0,94.00
2025-10-22 15:38:39.621,0.8143384,0.0,-0.47651193,0.85902375,0.47532904,0.0,-0.34772384,0.42088762,0.6381987,0.0,-0.008882692,0.78424686,0.40919256,0.0,-0.18245843,0.27301827,-0.2174632,0.0,-0.5875057,-0.17751561,802.6374,355.3846,813.91943,801.8315,680.14655,466.99634,-0.10699462890625,0.03778076171875,0.97882080078125,5.39825439453125,2.52716064453125,-0.9271240234375,4.225023443223443E8,3.537720879120879E8,2471575.0915750917,81.06541,1,1.0,2.0,1.0,1.0,94.00
2025-10-22 15:38:39.621,0.8143384,0.0,-0.47651193,0.85902375,0.47532904,0.0,-0.34772384,0.42088762,0.6381987,0.0,-0.008882692,0.78424686,0.40919256,0.0,-0.18245843,0.27301827,-0.2174632,0.0,-0.5875057,-0.17751561,794.9817,804.65204,810.696,798.20514,619.707,589.0842,-0.10699462890625,0.03778076171875,0.97882080078125,5.39825439453125,2.52716064453125,-0.9271240234375,4.225023443223443E8,3.537720879120879E8,2471575.0915750917,81.06541,1,1.0,2.0,1.0,1.0,94.00
2025-10-22 15:38:39.621,0.8143384,0.0,-0.47651193,0.85902375,0.47532904,0.0,-0.34772384,0.42088762,0.6381987,0.0,-0.008882692,0.78424686,0.40919256,0.0,-0.18245843,0.27301827,-0.2174632,0.0,-0.5875057,-0.17751561,786.9231,950.9158,809.0842,801.4286,860.2564,882.8205,-0.10699462890625,0.03778076171875,0.97882080078125,5.39825439453125,2.52716064453125,-0.9271240234375,4.225023443223443E8,3.537720879120879E8,2471575.0915750917,81.06541,1,1.0,2.0,1.0,1.0,94.00
2025-10-22 15:38:39.676,0.8143384,0.0,-0.47651193,0.85902375,0.47532904,0.0,-0.34772384,0.42088762,0.6381987,0.0,-0.008882692,0.78424686,0.40919256,0.0,-0.18245843,0.27301827,-0.2174632,0.0,-0.5875057,-0.17751561,793.7729,1087.1062,809.0842,804.2491,1021.02563,871.9414,-0.0987548828125,0.04278564453125,0.99432373046875,4.964599609375,-0.171966552734375,-1.338348388671875,4.225023443223443E8,3.536358974358974E8,2494945.054945055,81.27971,1,1.0,2.0,1.0,1.0,94.00
2025-10-22 15:38:39.676,0.8143384,0.0,-0.47651193,0.85902375,0.47532904,0.0,-0.34772384,0.42088762,0.6381987,0.0,-0.008882692,0.78424686,0.40919256,0.0,-0.18245843,0.27301827,-0.2174632,0.0,-0.5875057,-0.17751561,797.8022,548.7912,807.0696,798.20514,822.7839,608.4249,-0.0987548828125,0.04278564453125,0.99432373046875,4.964599609375,-0.171966552734375,-1.338348388671875,4.225023443223443E8,3.536358974358974E8,2494945.054945055,81.27971,1,1.0,2.0,1.0,1.0,94.00
2025-10-22 15:38:39.676,0.8143384,0.0,-0.47651193,0.85902375,0.47532904,0.0,-0.34772384,0.42088762,0.6381987,0.0,-0.008882692,0.78424686,0.40919256,0.0,-0.18245843,0.27301827,-0.2174632,0.0,-0.5875057,-0.17751561,801.02563,751.8681,808.68134,800.6227,670.87915,595.9341,-0.0987548828125,0.04278564453125,0.99432373046875,4.964599609375,-0.171966552734375,-1.338348388671875,4.225023443223443E8,3.536358974358974E8,2494945.054945055,81.27971,1,1.0,2.0,1.0,1.0,94.00
2025-10-22 15:38:39.677,0.8143384,0.0,-0.47651193,0.85902375,0.47532904,0.0,-0.34772384,0.42088762,0.6381987,0.0,-0.008882692,0.78424686,0.40919256,0.0,-0.18245843,0.27301827,-0.2174632,0.0,-0.5875057,-0.17751561,795.38464,740.58606,807.8755,804.2491,821.978,701.9048,-0.0987548828125,0.04278564453125,0.99432373046875,4.964599609375,-0.171966552734375,-1.338348388671875,4.225023443223443E8,3.536358974358974E8,2494945.054945055,81.27971,1,1.0,2.0,1.0,1.0,94.00
2025-10-22 15:38:39.677,0.8143384,0.0,-0.47651193,0.85902375,0.47532904,0.0,-0.34772384,0.42088762,0.6381987,0.0,-0.008882692,0.78424686,0.40919256,0.0,-0.18245843,0.27301827,-0.2174632,0.0,-0.5875057,-0.17751561,793.36993,1149.1575,807.0696,802.23444,1074.2124,815.5311,-0.0987548828125,0.04278564453125,0.99432373046875,4.964599609375,-0.171966552734375,-1.338348388671875,4.225023443223443E8,3.536358974358974E8,2494945.054945055,81.27971,1,1.0,2.0,1.0,1.0,94.00
2025-10-22 15:38:39.677,0.8143384,0.0,-0.47651193,0.85902375,0.47532904,0.0,-0.34772384,0.42088762,0.6381987,0.0,-0.008882692,0.78424686,0.40919256,0.0,-0.18245843,0.27301827,-0.2174632,0.0,-0.5875057,-0.17751561,798.60803,1002.0879,806.6667,800.2198,917.47253,1033.1135,-0.0987548828125,0.04278564453125,0.99432373046875,4.964599609375,-0.171966552734375,-1.338348388671875,4.225023443223443E8,3.536358974358974E8,2494945.054945055,81.27971,1,1.0,2.0,1.0,1.0,94.00
2025-10-22 15:38:39.677,0.8143384,0.0,-0.47651193,0.85902375,0.47532904,0.0,-0.34772384,0.42088762,0.6381987,0.0,-0.008882692,0.78424686,0.40919256,0.0,-0.18245843,0.27301827,-0.2174632,0.0,-0.5875057,-0.17751561,800.2198,683.36993,804.65204,800.6227,759.12085,1149.1575,-0.0987548828125,0.04278564453125,0.99432373046875,4.964599609375,-0.171966552734375,-1.338348388671875,4.225023443223443E8,3.536358974358974E8,2494945.054945055,81.27971,1,1.0,2.0,1.0,1.0,94.00
2025-10-22 15:38:39.678,0.8075992,0.0,-0.37487015,0.8575354,0.42376348,0.0,-0.39435166,0.3710075,0.6194279,0.0,0.0059905937,0.768687,0.4057197,0.0,-0.17716995,0.2670558,-0.20830975,0.0,-0.58735937,-0.18573985,794.17584,305.42123,805.05493,805.4579,849.7802,839.304,-0.0987548828125,0.04278564453125,0.99432373046875,4.964599609375,-0.171966552734375,-1.338348388671875,4.225023443223443E8,3.536358974358974E8,2494945.054945055,81.27971,1,1.0,2.0,1.0,1.0,94.00
2025-10-22 15:38:39.679,0.8075992,0.0,-0.37487015,0.8575354,0.42376348,0.0,-0.39435166,0.3710075,0.6194279,0.0,0.0059905937,0.768687,0.4057197,0.0,-0.17716995,0.2670558,-0.20830975,0.0,-0.58735937,-0.18573985,792.1612,862.674,805.05493,808.2784,967.4359,639.85345,-0.0987548828125,0.04278564453125,0.99432373046875,4.964599609375,-0.171966552734375,-1.338348388671875,4.225023443223443E8,3.536358974358974E8,2494945.054945055,81.27971,1,1.0,2.0,1.0,1.0,94.00
2025-10-22 15:38:39.679,0.8075992,0.0,-0.37487015,0.8575354,0.42376348,0.0,-0.39435166,0.3710075,0.6194279,0.0,0.0059905937,0.768687,0.4057197,0.0,-0.17716995,0.2670558,-0.20830975,0.0,-0.58735937,-0.18573985,799.81683,880.80585,804.2491,801.4286,838.49817,655.16486,-0.0987548828125,0.04278564453125,0.99432373046875,4.964599609375,-0.171966552734375,-1.338348388671875,4.225023443223443E8,3.536358974358974E8,2494945.054945055,81.27971,1,1.0,2.0,1.0,1.0,94.00
2025-10-22 15:38:39.679,0.8075992,0.0,-0.37487015,0.8575354,0.42376348,0.0,-0.39435166,0.3710075,0.6194279,0.0,0.0059905937,0.768687,0.4057197,0.0,-0.17716995,0.2670558,-0.20830975,0.0,-0.58735937,-0.18573985,803.8461,541.13556,801.02563,795.38464,606.0073,476.66666,-0.0987548828125,0.04278564453125,0.99432373046875,4.964599609375,-0.171966552734375,-1.338348388671875,4.225023443223443E8,3.536358974358974E8,2494945.054945055,81.27971,1,1.0,2.0,1.0,1.0,94.00
2025-10-22 15:38:39.679,0.8075992,0.0,-0.37487015,0.8575354,0.42376348,0.0,-0.39435166,0.3710075,0.6194279,0.0,0.0059905937,0.768687,0.4057197,0.0,-0.17716995,0.2670558,-0.20830975,0.0,-0.58735937,-0.18573985,793.36993,573.7729,797.8022,794.17584,680.14655,530.2564,-0.0987548828125,0.04278564453125,0.99432373046875,4.964599609375,-0.171966552734375,-1.338348388671875,4.225023443223443E8,3.536358974358974E8,2494945.054945055,81.27971,1,1.0,2.0,1.0,1.0,94.00
2025-10-22 15:38:39.707,0.8075992,0.0,-0.37487015,0.8575354,0.42376348,0.0,-0.39435166,0.3710075,0.6194279,0.0,0.0059905937,0.768687,0.4057197,0.0,-0.17716995,0.2670558,-0.20830975,0.0,-0.58735937,-0.18573985,782.8938,974.2857,799.011,797.8022,917.0696,652.3443,-0.0987548828125,0.04278564453125,0.99432373046875,4.964599609375,-0.171966552734375,-1.338348388671875,4.225023443223443E8,3.536358974358974E8,2494945.054945055,81.27971,1,1.0,2.0,1.0,1.0,94.00
2025-10-22 15:38:39.708,0.8075992,0.0,-0.37487015,0.8575354,0.42376348,0.0,-0.39435166,0.3710075,0.6194279,0.0,0.0059905937,0.768687,0.4057197,0.0,-0.17716995,0.2670558,-0.20830975,0.0,-0.58735937,-0.18573985,793.7729,1195.8975,805.05493,802.6374,970.2564,796.1905,-0.0987548828125,0.04278564453125,0.99432373046875,4.964599609375,-0.171966552734375,-1.338348388671875,4.225023443223443E8,3.536358974358974E8,2494945.054945055,81.27971,1,1.0,2.0,1.0,1.0,94.00
2025-10-22 15:38:39.708,0.8075992,0.0,-0.37487015,0.8575354,0.42376348,0.0,-0.39435166,0.3710075,0.6194279,0.0,0.0059905937,0.768687,0.4057197,0.0,-0.17716995,0.2670558,-0.20830975,0.0,-0.58735937,-0.18573985,800.6227,743.8095,803.44324,802.6374,730.9158,887.25275,-0.0987548828125,0.04278564453125,0.99432373046875,4.964599609375,-0.171966552734375,-1.338348388671875,4.225023443223443E8,3.536358974358974E8,2494945.054945055,81.27971,1,1.0,2.0,1.0,1.0,94.00
2025-10-22 15:38:39.708,0.8075992,0.0,-0.37487015,0.8575354,0.42376348,0.0,-0.39435166,0.3710075,0.6194279,0.0,0.0059905937,0.768687,0.4057197,0.0,-0.17716995,0.2670558,-0.20830975,0.0,-0.58735937,-0.18573985,796.99634,462.96704,801.02563,804.65204,775.64105,725.6777,-0.0987548828125,0.04278564453125,0.99432373046875,4.964599609375,-0.171966552734375,-1.338348388671875,4.225023443223443E8,3.536358974358974E8,2494945.054945055,81.27971,1,1.0,2.0,1.0,1.0,94.00
2025-10-22 15:38:39.709,0.8075992,0.0,-0.37487015,0.8575354,0.42376348,0.0,-0.39435166,0.3710075,0.6194279,0.0,0.0059905937,0.768687,0.4057197,0.0,-0.17716995,0.2670558,-0.20830975,0.0,-0.58735937,-0.18573985,799.41394,816.7399,809.4872,819.15753,866.30035,743.00366,-0.0987548828125,0.04278564453125,0.99432373046875,4.964599609375,-0.171966552734375,-1.338348388671875,4.225023443223443E8,3.536358974358974E8,2494945.054945055,81.27971,1,1.0,2.0,1.0,1.0,94.00
2025-10-22 15:38:39.709,0.8075992,0.0,-0.37487015,0.8575354,0.42376348,0.0,-0.39435166,0.3710075,0.6194279,0.0,0.0059905937,0.768687,0.4057197,0.0,-0.17716995,0.2670558,-0.20830975,0.0,-0.58735937,-0.18573985,805.4579,1477.1428,812.3077,823.1868,1018.20514,1276.4835,-0.0987548828125,0.04278564453125,0.99432373046875,4.964599609375,-0.171966552734375,-1.338348388671875,4.225023443223443E8,3.536358974358974E8,2494945.054945055,81.27971,1,1.0,2.0,1.0,1.0,94.00
2025-10-22 15:38:39.709,0.8075992,0.0,-0.37487015,0.8575354,0.42376348,0.0,-0.39435166,0.3710075,0.6194279,0.0,0.0059905937,0.768687,0.4057197,0.0,-0.17716995,0.2670558,-0.20830975,0.0,-0.58735937,-0.18573985,802.6374,689.011,808.68134,810.696,864.2857,1273.2601,-0.0987548828125,0.04278564453125,0.99432373046875,4.964599609375,-0.171966552734375,-1.338348388671875,4.225023443223443E8,3.536358974358974E8,2494945.054945055,81.27971,1,1.0,2.0,1.0,1.0,94.00
2025-10-22 15:38:39.709,0.8075992,0.0,-0.37487015,0.8575354,0.42376348,0.0,-0.39435166,0.3710075,0.6194279,0.0,0.0059905937,0.768687,0.4057197,0.0,-0.17716995,0.2670558,-0.20830975,0.0,-0.58735937,-0.18573985,802.6374,517.76556,803.0403,805.05493,737.3626,1006.52014,-0.0987548828125,0.04278564453125,0.99432373046875,4.964599609375,-0.171966552734375,-1.338348388671875,4.225023443223443E8,3.536358974358974E8,2494945.054945055,81.27971,1,1.0,2.0,1.0,1.0,94.00
2025-10-22 15:38:39.710,0.8075992,0.0,-0.37487015,0.8575354,0.42376348,0.0,-0.39435166,0.3710075,0.6194279,0.0,0.0059905937,0.768687,0.4057197,0.0,-0.17716995,0.2670558,-0.20830975,0.0,-0.58735937,-0.18573985,794.17584,474.652,800.2198,804.65204,869.92676,798.20514,-0.0987548828125,0.04278564453125,0.99432373046875,4.964599609375,-0.171966552734375,-1.338348388671875,4.225023443223443E8,3.536358974358974E8,2494945.054945055,81.27971,1,1.0,2.0,1.0,1.0,94.00
2025-10-22 15:38:39.710,0.8075992,0.0,-0.37487015,0.8575354,0.42376348,0.0,-0.39435166,0.3710075,0.6194279,0.0,0.0059905937,0.768687,0.4057197,0.0,-0.17716995,0.2670558,-0.20830975,0.0,-0.58735937,-0.18573985,794.9817,1059.7069,803.8461,808.2784,1022.23444,789.34064,-0.0987548828125,0.04278564453125,0.99432373046875,4.964599609375,-0.171966552734375,-1.338348388671875,4.225023443223443E8,3.536358974358974E8,2494945.054945055,81.27971,1,1.0,2.0,1.0,1.0,94.00
2025-10-22 15:38:39.710,0.8075992,0.0,-0.37487015,0.8575354,0.42376348,0.0,-0.39435166,0.3710075,0.6194279,0.0,0.0059905937,0.768687,0.4057197,0.0,-0.17716995,0.2670558,-0.20830975,0.0,-0.58735937,-0.18573985,801.02563,746.63007,804.65204,808.68134,864.2857,732.52747,-0.0987548828125,0.04278564453125,0.99432373046875,4.964599609375,-0.171966552734375,-1.338348388671875,4.225023443223443E8,3.536358974358974E8,2494945.054945055,81.27971,1,1.0,2.0,1.0,1.0,94.00
2025-10-22 15:38:39.710,0.8075992,0.0,-0.37487015,0.8575354,0.42376348,0.0,-0.39435166,0.3710075,0.6194279,0.0,0.0059905937,0.768687,0.4057197,0.0,-0.17716995,0.2670558,-0.20830975,0.0,-0.58735937,-0.18573985,799.41394,444.83517,804.65204,803.0403,658.3883,507.69232,-0.0987548828125,0.04278564453125,0.99432373046875,4.964599609375,-0.171966552734375,-1.338348388671875,4.225023443223443E8,3.536358974358974E8,2494945.054945055,81.27971,1,1.0,2.0,1.0,1.0,94.00
2025-10-22 15:38:39.764,0.8075992,0.0,-0.37487015,0.8575354,0.42376348,0.0,-0.39435166,0.3710075,0.6194279,0.0,0.0059905937,0.768687,0.4057197,0.0,-0.17716995,0.2670558,-0.20830975,0.0,-0.58735937,-0.18573985,794.9817,535.09155,806.6667,807.0696,694.65204,463.7729,-0.10870361328125,0.04638671875,0.9893798828125,2.37762451171875,3.102874755859375,0.231781005859375,4.225023443223443E8,3.5353194139194137E8,2486080.586080586,81.51692,1,1.0,2.0,1.0,1.0,94.00
2025-10-22 15:38:39.765,0.8075992,0.0,-0.37487015,0.8575354,0.42376348,0.0,-0.39435166,0.3710075,0.6194279,0.0,0.0059905937,0.768687,0.4057197,0.0,-0.17716995,0.2670558,-0.20830975,0.0,-0.58735937,-0.18573985,792.1612,1215.641,806.26373,811.50183,938.022,774.0293,-0.10870361328125,0.04638671875,0.9893798828125,2.37762451171875,3.102874755859375,0.231781005859375,4.225023443223443E8,3.5353194139194137E8,2486080.586080586,81.51692,1,1.0,2.0,1.0,1.0,94.00
2025-10-22 15:38:39.765,0.8075992,0.0,-0.37487015,0.8575354,0.42376348,0.0,-0.39435166,0.3710075,0.6194279,0.0,0.0059905937,0.768687,0.4057197,0.0,-0.17716995,0.2670558,-0.20830975,0.0,-0.58735937,-0.18573985,797.3993,858.6447,805.8608,805.8608,972.27106,859.45056,-0.10870361328125,0.04638671875,0.9893798828125,2.37762451171875,3.102874755859375,0.231781005859375,4.225023443223443E8,3.5353194139194137E8,2486080.586080586,81.51692,1,1.0,2.0,1.0,1.0,94.00
2025-10-22 15:38:39.765,0.8075992,0.0,-0.37487015,0.8575354,0.42376348,0.0,-0.39435166,0.3710075,0.6194279,0.0,0.0059905937,0.768687,0.4057197,0.0,-0.17716995,0.2670558,-0.20830975,0.0,-0.58735937,-0.18573985,799.011,402.9304,802.23444,805.05493,697.47253,564.10254,-0.10870361328125,0.04638671875,0.9893798828125,2.37762451171875,3.102874755859375,0.231781005859375,4.225023443223443E8,3.5353194139194137E8,2486080.586080586,81.51692,1,1.0,2.0,1.0,1.0,94.00
2025-10-22 15:38:39.765,0.8075992,0.0,-0.37487015,0.8575354,0.42376348,0.0,-0.39435166,0.3710075,0.6194279,0.0,0.0059905937,0.768687,0.4057197,0.0,-0.17716995,0.2670558,-0.20830975,0.0,-0.58735937,-0.18573985,795.78754,685.78754,802.6374,807.8755,668.46155,511.3187,-0.10870361328125,0.04638671875,0.9893798828125,2.37762451171875,3.102874755859375,0.231781005859375,4.225023443223443E8,3.5353194139194137E8,2486080.586080586,81.51692,1,1.0,2.0,1.0,1.0,94.00
2025-10-22 15:38:39.766,0.8075992,0.0,-0.37487015,0.8575354,0.42376348,0.0,-0.39435166,0.3710075,0.6194279,0.0,0.0059905937,0.768687,0.4057197,0.0,-0.17716995,0.2670558,-0.20830975,0.0,-0.58735937,-0.18573985,793.36993,1337.7289,803.44324,810.696,843.3333,949.304,-0.10870361328125,0.04638671875,0.9893798828125,2.37762451171875,3.102874755859375,0.231781005859375,4.225023443223443E8,3.5353194139194137E8,2486080.586080586,81.51692,1,1.0,2.0,1.0,1.0,94.00
2025-10-22 15:38:39.766,0.8075992,0.0,-0.37487015,0.8575354,0.42376348,0.0,-0.39435166,0.3710075,0.6194279,0.0,0.0059905937,0.768687,0.4057197,0.0,-0.17716995,0.2670558,-0.20830975,0.0,-0.58735937,-0.18573985,802.6374,1393.3334,807.47253,813.1135,1046.0073,1452.1611,-0.10870361328125,0.04638671875,0.9893798828125,2.37762451171875,3.102874755859375,0.231781005859375,4.225023443223443E8,3.5353194139194137E8,2486080.586080586,81.51692,1,1.0,2.0,1.0,1.0,94.00
2025-10-22 15:38:39.766,0.8075992,0.0,-0.37487015,0.8575354,0.42376348,0.0,-0.39435166,0.3710075,0.6194279,0.0,0.0059905937,0.768687,0.4057197,0.0,-0.17716995,0.2670558,-0.20830975,0.0,-0.58735937,-0.18573985,811.0989,436.37363,806.6667,801.8315,929.5604,1230.9524,-0.10870361328125,0.04638671875,0.9893798828125,2.37762451171875,3.102874755859375,0.231781005859375,4.225023443223443E8,3.5353194139194137E8,2486080.586080586,81.51692,1,1.0,2.0,1.0,1.0,94.00
2025-10-22 15:38:39.766,0.8075992,0.0,-0.37487015,0.8575354,0.42376348,0.0,-0.39435166,0.3710075,0.6194279,0.0,0.0059905937,0.768687,0.4057197,0.0,-0.17716995,0.2670558,-0.20830975,0.0,-0.58735937,-0.18573985,809.89014,369.48718,803.44324,796.1905,859.45056,802.23444,-0.10870361328125,0.04638671875,0.9893798828125,2.37762451171875,3.102874755859375,0.231781005859375,4.225023443223443E8,3.5353194139194137E8,2486080.586080586,81.51692,1,1.0,2.0,1.0,1.0,94.00
2025-10-22 15:38:39.767,0.8085893,0.0,-0.2941037,0.8617101,0.39704365,0.0,-0.43170694,0.33347738,0.5675327,0.0,0.030975416,0.75867057,0.4051629,0.0,-0.1695924,0.2529817,-0.18647596,0.0,-0.5963109,-0.19800901,799.81683,763.95605,804.65204,802.23444,918.2784,728.49817,-0.10870361328125,0.04638671875,0.9893798828125,2.37762451171875,3.102874755859375,0.231781005859375,4.225023443223443E8,3.5353194139194137E8,2486080.586080586,81.51692,1,1.0,2.0,1.0,1.0,94.00
2025-10-22 15:38:39.768,0.8085893,0.0,-0.2941037,0.8617101,0.39704365,0.0,-0.43170694,0.33347738,0.5675327,0.0,0.030975416,0.75867057,0.4051629,0.0,-0.1695924,0.2529817,-0.18647596,0.0,-0.5963109,-0.19800901,801.8315,1241.4286,805.8608,804.65204,1096.3737,997.25275,-0.10870361328125,0.04638671875,0.9893798828125,2.37762451171875,3.102874755859375,0.231781005859375,4.225023443223443E8,3.5353194139194137E8,2486080.586080586,81.51692,1,1.0,2.0,1.0,1.0,94.00
2025-10-22 15:38:39.768,0.8085893,0.0,-0.2941037,0.8617101,0.39704365,0.0,-0.43170694,0.33347738,0.5675327,0.0,0.030975416,0.75867057,0.4051629,0.0,-0.1695924,0.2529817,-0.18647596,0.0,-0.5963109,-0.19800901,806.26373,477.87546,807.47253,801.8315,902.96704,743.00366,-0.10870361328125,0.04638671875,0.9893798828125,2.37762451171875,3.102874755859375,0.231781005859375,4.225023443223443E8,3.5353194139194137E8,2486080.586080586,81.51692,1,1.0,2.0,1.0,1.0,94.00
2025-10-22 15:38:39.806,0.8085893,0.0,-0.2941037,0.8617101,0.39704365,0.0,-0.43170694,0.33347738,0.5675327,0.0,0.030975416,0.75867057,0.4051629,0.0,-0.1695924,0.2529817,-0.18647596,0.0,-0.5963109,-0.19800901,803.0403,481.50183,802.6374,792.96704,633.4066,381.97803,-0.107666015625,0.02862548828125,0.974365234375,2.115936279296875,3.2000732421875,0.426177978515625,4.225023443223443E8,3.5353194139194137E8,2486080.586080586,81.51692,1,1.0,2.0,1.0,1.0,94.00
2025-10-22 15:38:39.807,0.8085893,0.0,-0.2941037,0.8617101,0.39704365,0.0,-0.43170694,0.33347738,0.5675327,0.0,0.030975416,0.75867057,0.4051629,0.0,-0.1695924,0.2529817,-0.18647596,0.0,-0.5963109,-0.19800901,794.9817,857.8388,799.81683,790.54944,720.0366,536.30035,-0.107666015625,0.02862548828125,0.974365234375,2.115936279296875,3.2000732421875,0.426177978515625,4.225023443223443E8,3.5353194139194137E8,2486080.586080586,81.51692,1,1.0,2.0,1.0,1.0,94.00
2025-10-22 15:38:39.807,0.8085893,0.0,-0.2941037,0.8617101,0.39704365,0.0,-0.43170694,0.33347738,0.5675327,0.0,0.030975416,0.75867057,0.4051629,0.0,-0.1695924,0.2529817,-0.18647596,0.0,-0.5963109,-0.19800901,796.1905,1227.326,805.05493,795.78754,974.68866,834.0659,-0.107666015625,0.02862548828125,0.974365234375,2.115936279296875,3.2000732421875,0.426177978515625,4.225023443223443E8,3.5353194139194137E8,2486080.586080586,81.51692,1,1.0,2.0,1.0,1.0,94.00
2025-10-22 15:38:39.807,0.8085893,0.0,-0.2941037,0.8617101,0.39704365,0.0,-0.43170694,0.33347738,0.5675327,0.0,0.030975416,0.75867057,0.4051629,0.0,-0.1695924,0.2529817,-0.18647596,0.0,-0.5963109,-0.19800901,799.011,593.5165,805.4579,794.57874,882.4176,679.7436,-0.107666015625,0.02862548828125,0.974365234375,2.115936279296875,3.2000732421875,0.426177978515625,4.225023443223443E8,3.5353194139194137E8,2486080.586080586,81.51692,1,1.0,2.0,1.0,1.0,94.00
2025-10-22 15:38:39.807,0.8085893,0.0,-0.2941037,0.8617101,0.39704365,0.0,-0.43170694,0.33347738,0.5675327,0.0,0.030975416,0.75867057,0.4051629,0.0,-0.1695924,0.2529817,-0.18647596,0.0,-0.5963109,-0.19800901,803.8461,653.5531,801.4286,788.93774,659.19415,597.1429,-0.107666015625,0.02862548828125,0.974365234375,2.115936279296875,3.2000732421875,0.426177978515625,4.225023443223443E8,3.5353194139194137E8,2486080.586080586,81.51692,1,1.0,2.0,1.0,1.0,94.00
2025-10-22 15:38:39.808,0.8085893,0.0,-0.2941037,0.8617101,0.39704365,0.0,-0.43170694,0.33347738,0.5675327,0.0,0.030975416,0.75867057,0.4051629,0.0,-0.1695924,0.2529817,-0.18647596,0.0,-0.5963109,-0.19800901,796.1905,916.26373,803.0403,789.34064,750.65936,1038.3517,-0.107666015625,0.02862548828125,0.974365234375,2.115936279296875,3.2000732421875,0.426177978515625,4.225023443223443E8,3.5353194139194137E8,2486080.586080586,81.51692,1,1.0,2.0,1.0,1.0,94.00
2025-10-22 15:38:39.808,0.8085893,0.0,-0.2941037,0.8617101,0.39704365,0.0,-0.43170694,0.33347738,0.5675327,0.0,0.030975416,0.75867057,0.4051629,0.0,-0.1695924,0.2529817,-0.18647596,0.0,-0.5963109,-0.19800901,789.7436,1137.4725,809.0842,797.8022,954.94507,1392.1245,-0.107666015625,0.02862548828125,0.974365234375,2.115936279296875,3.2000732421875,0.426177978515625,4.225023443223443E8,3.5353194139194137E8,2486080.586080586,81.51692,1,1.0,2.0,1.0,1.0,94.00
2025-10-22 15:38:39.808,0.8085893,0.0,-0.2941037,0.8617101,0.39704365,0.0,-0.43170694,0.33347738,0.5675327,0.0,0.030975416,0.75867057,0.4051629,0.0,-0.1695924,0.2529817,-0.18647596,0.0,-0.5963109,-0.19800901,796.5934,747.4359,809.89014,799.41394,984.35895,1200.7325,-0.107666015625,0.02862548828125,0.974365234375,2.115936279296875,3.2000732421875,0.426177978515625,4.225023443223443E8,3.5353194139194137E8,2486080.586080586,81.51692,1,1.0,2.0,1.0,1.0,94.00
2025-10-22 15:38:39.808,0.8085893,0.0,-0.2941037,0.8617101,0.39704365,0.0,-0.43170694,0.33347738,0.5675327,0.0,0.030975416,0.75867057,0.4051629,0.0,-0.1695924,0.2529817,-0.18647596,0.0,-0.5963109,-0.19800901,796.5934,267.54578,807.47253,794.17584,720.0366,496.00732,-0.107666015625,0.02862548828125,0.974365234375,2.115936279296875,3.2000732421875,0.426177978515625,4.225023443223443E8,3.5353194139194137E8,2486080.586080586,81.51692,1,1.0,2.0,1.0,1.0,94.00
2025-10-22 15:38:39.808,0.8085893,0.0,-0.2941037,0.8617101,0.39704365,0.0,-0.43170694,0.33347738,0.5675327,0.0,0.030975416,0.75867057,0.4051629,0.0,-0.1695924,0.2529817,-0.18647596,0.0,-0.5963109,-0.19800901,790.14655,1039.1575,807.0696,796.1905,671.28204,729.707,-0.107666015625,0.02862548828125,0.974365234375,2.115936279296875,3.2000732421875,0.426177978515625,4.225023443223443E8,3.5353194139194137E8,2486080.586080586,81.51692,1,1.0,2.0,1.0,1.0,94.00
2025-10-22 15:38:39.809,0.8085893,0.0,-0.2941037,0.8617101,0.39704365,0.0,-0.43170694,0.33347738,0.5675327,0.0,0.030975416,0.75867057,0.4051629,0.0,-0.1695924,0.2529817,-0.18647596,0.0,-0.5963109,-0.19800901,780.87915,931.1722,803.0403,797.3993,1008.1319,1054.4689,-0.107666015625,0.02862548828125,0.974365234375,2.115936279296875,3.2000732421875,0.426177978515625,4.225023443223443E8,3.5353194139194137E8,2486080.586080586,81.51692,1,1.0,2.0,1.0,1.0,94.00
2025-10-22 15:38:39.809,0.8085893,0.0,-0.2941037,0.8617101,0.39704365,0.0,-0.43170694,0.33347738,0.5675327,0.0,0.030975416,0.75867057,0.4051629,0.0,-0.1695924,0.2529817,-0.18647596,0.0,-0.5963109,-0.19800901,792.1612,901.75824,800.2198,792.5641,1059.7069,811.9048,-0.107666015625,0.02862548828125,0.974365234375,2.115936279296875,3.2000732421875,0.426177978515625,4.225023443223443E8,3.5353194139194137E8,2486080.586080586,81.51692,1,1.0,2.0,1.0,1.0,94.00
2025-10-22 15:38:39.860,0.8085893,0.0,-0.2941037,0.8617101,0.39704365,0.0,-0.43170694,0.33347738,0.5675327,0.0,0.030975416,0.75867057,0.4051629,0.0,-0.1695924,0.2529817,-0.18647596,0.0,-0.5963109,-0.19800901,803.8461,617.6923,798.60803,787.72894,794.57874,499.23077,-0.10357666015625,0.0450439453125,0.9891357421875,4.41131591796875,3.6187744140625,1.435546875,4.225023443223443E8,3.53476336996337E8,2471575.0915750917,81.74026,1,1.0,2.0,1.0,1.0,94.00
2025-10-22 15:38:39.860,0.8085893,0.0,-0.2941037,0.8617101,0.39704365,0.0,-0.43170694,0.33347738,0.5675327,0.0,0.030975416,0.75867057,0.4051629,0.0,-0.1695924,0.2529817,-0.18647596,0.0,-0.5963109,-0.19800901,798.60803,750.65936,796.5934,788.93774,713.1868,522.6007,-0.10357666015625,0.0450439453125,0.9891357421875,4.41131591796875,3.6187744140625,1.435546875,4.225023443223443E8,3.53476336996337E8,2471575.0915750917,81.74026,1,1.0,2.0,1.0,1.0,94.00
2025-10-22 15:38:39.860,0.8085893,0.0,-0.2941037,0.8617101,0.39704365,0.0,-0.43170694,0.33347738,0.5675327,0.0,0.030975416,0.75867057,0.4051629,0.0,-0.1695924,0.2529817,-0.18647596,0.0,-0.5963109,-0.19800901,788.5348,873.5531,796.99634,794.17584,823.1868,706.7399,-0.10357666015625,0.0450439453125,0.9891357421875,4.41131591796875,3.6187744140625,1.435546875,4.225023443223443E8,3.53476336996337E8,2471575.0915750917,81.74026,1,1.0,2.0,1.0,1.0,94.00
2025-10-22 15:38:39.861,0.8085893,0.0,-0.2941037,0.8617101,0.39704365,0.0,-0.43170694,0.33347738,0.5675327,0.0,0.030975416,0.75867057,0.4051629,0.0,-0.1695924,0.2529817,-0.18647596,0.0,-0.5963109,-0.19800901,793.7729,1156.8132,803.0403,800.6227,980.32965,851.79486,-0.10357666015625,0.0450439453125,0.9891357421875,4.41131591796875,3.6187744140625,1.435546875,4.225023443223443E8,3.53476336996337E8,2471575.0915750917,81.74026,1,1.0,2.0,1.0,1.0,94.00
2025-10-22 15:38:39.861,0.8085893,0.0,-0.2941037,0.8617101,0.39704365,0.0,-0.43170694,0.33347738,0.5675327,0.0,0.030975416,0.75867057,0.4051629,0.0,-0.1695924,0.2529817,-0.18647596,0.0,-0.5963109,-0.19800901,803.0403,645.4945,805.8608,797.8022,779.67035,649.92676,-0.10357666015625,0.0450439453125,0.9891357421875,4.41131591796875,3.6187744140625,1.435546875,4.225023443223443E8,3.53476336996337E8,2471575.0915750917,81.74026,1,1.0,2.0,1.0,1.0,94.00
2025-10-22 15:38:39.861,0.8085893,0.0,-0.2941037,0.8617101,0.39704365,0.0,-0.43170694,0.33347738,0.5675327,0.0,0.030975416,0.75867057,0.4051629,0.0,-0.1695924,0.2529817,-0.18647596,0.0,-0.5963109,-0.19800901,803.8461,947.6923,807.0696,795.38464,599.5604,772.8205,-0.10357666015625,0.0450439453125,0.9891357421875,4.41131591796875,3.6187744140625,1.435546875,4.225023443223443E8,3.53476336996337E8,2471575.0915750917,81.74026,1,1.0,2.0,1.0,1.0,94.00
2025-10-22 15:38:39.861,0.8085893,0.0,-0.2941037,0.8617101,0.39704365,0.0,-0.43170694,0.33347738,0.5675327,0.0,0.030975416,0.75867057,0.4051629,0.0,-0.1695924,0.2529817,-0.18647596,0.0,-0.5963109,-0.19800901,795.38464,751.8681,808.2784,801.02563,833.2601,1144.3224,-0.10357666015625,0.0450439453125,0.9891357421875,4.41131591796875,3.6187744140625,1.435546875,4.225023443223443E8,3.53476336996337E8,2471575.0915750917,81.74026,1,1.0,2.0,1.0,1.0,94.00
