TimeStamp,Delta_TP9,Delta_AF7,Delta_AF8,Delta_TP10,Theta_TP9,Theta_AF7,Theta_AF8,Theta_TP10,Alpha_TP9,Alpha_AF7,Alpha_AF8,Alpha_TP10,Beta_TP9,Beta_AF7,Beta_AF8,Beta_TP10,Gamma_TP9,Gamma_AF7,Gamma_AF8,Gamma_TP10,RAW_TP9,RAW_AF7,RAW_AF8,RAW_TP10,AUX_RIGHT,AUX_LEFT,Accelerometer_X,Accelerometer_Y,Accelerometer_Z,Gyro_X,Gyro_Y,Gyro_Z,PPG_Ambient,PPG_IR,PPG_Red,Heart_Rate,HeadBandOn,HSI_TP9,HSI_AF7,HSI_AF8,HSI_TP10,Battery,Elements
2025-10-22 13:35:44.388,,,,,,,,,,,,,,,,,,,,,,,,,,,,,,,,,,,,,,,,,,,/muse/event/connected MuseS-9CF6
2025-10-22 13:35:44.432,0.40173492,0.24209784,0.59229934,0.49710613,0.64409107,0.12622207,-0.0925273,0.58297354,0.6412876,0.67685574,0.19441299,0.6002164,0.5205195,0.63256073,0.059564285,0.2687515,-0.13310456,1.2225941,-0.36852422,-0.3327248,794.9817,784.10254,801.4286,792.1612,745.42126,568.93774,-0.1112060546875,0.0863037109375,0.97576904296875,2.968292236328125,2.459869384765625,-2.205657958984375,3.48474358974359E8,3.023855677655678E8,1908278.3882783882,63.18248,1,1.0,1.0,1.0,1.0,95.00
2025-10-22 13:35:44.433,0.40173492,0.24209784,0.59229934,0.49710613,0.64409107,0.12622207,-0.0925273,0.58297354,0.6412876,0.67685574,0.19441299,0.6002164,0.5205195,0.63256073,0.059564285,0.2687515,-0.13310456,1.2225941,-0.36852422,-0.3327248,802.23444,853.8095,805.05493,788.5348,782.0879,793.7729,-0.1112060546875,0.0863037109375,0.97576904296875,2.968292236328125,2.459869384765625,-2.205657958984375,3.48474358974359E8,3.023855677655678E8,1908278.3882783882,63.18248,1,1.0,1.0,1.0,1.0,95.00
2025-10-22 13:35:44.433,0.40173492,0.24209784,0.59229934,0.49710613,0.64409107,0.12622207,-0.0925273,0.58297354,0.6412876,0.67685574,0.19441299,0.6002164,0.5205195,0.63256073,0.059564285,0.2687515,-0.13310456,1.2225941,-0.36852422,-0.3327248,808.2784,824.7985,806.6667,791.75824,819.15753,871.13556,-0.1112060546875,0.0863037109375,0.97576904296875,2.968292236328125,2.459869384765625,-2.205657958984375,3.48474358974359E8,3.023855677655678E8,1908278.3882783882,63.18248,1,1.0,1.0,1.0,1.0,95.00
2025-10-22 13:35:44.434,0.40173492,0.24209784,0.59229934,0.49710613,0.64409107,0.12622207,-0.0925273,0.58297354,0.6412876,0.67685574,0.19441299,0.6002164,0.5205195,0.63256073,0.059564285,0.2687515,-0.13310456,1.2225941,-0.36852422,-0.3327248,803.8461,776.8498,806.6667,790.9524,814.3223,695.4579,-0.1112060546875,0.0863037109375,0.97576904296875,2.968292236328125,2.459869384765625,-2.205657958984375,3.48474358974359E8,3.023855677655678E8,1908278.3882783882,63.18248,1,1.0,1.0,1.0,1.0,95.00
2025-10-22 13:35:44.434,0.40173492,0.24209784,0.59229934,0.49710613,0.64409107,0.12622207,-0.0925273,0.58297354,0.6412876,0.67685574,0.19441299,0.6002164,0.5205195,0.63256073,0.059564285,0.2687515,-0.13310456,1.2225941,-0.36852422,-0.3327248,804.2491,787.326,807.0696,787.72894,792.1612,661.2088,-0.1112060546875,0.0863037109375,0.97576904296875,2.968292236328125,2.459869384765625,-2.205657958984375,3.48474358974359E8,3.023855677655678E8,1908278.3882783882,63.18248,1,1.0,1.0,1.0,1.0,95.00
2025-10-22 13:35:44.434,0.40173492,0.2896937,0.5936893,0.49710613,0.64409107,0.15602419,-0.10452438,0.58297354,0.6412876,0.6744682,0.19441299,0.6002164,0.5205195,0.62917626,0.04400395,0.2687515,-0.13310456,1.234229,-0.37927863,-0.3327248,809.0842,846.1539,809.0842,790.9524,767.98535,907.8022,-0.1112060546875,0.0863037109375,0.97576904296875,2.968292236328125,2.459869384765625,-2.205657958984375,3.48474358974359E8,3.023855677655678E8,1908278.3882783882,63.18248,1,1.0,1.0,1.0,1.0,95.00
2025-10-22 13:35:44.436,0.40173492,0.2896937,0.5936893,0.49710613,0.64409107,0.15602419,-0.10452438,0.58297354,0.6412876,0.6744682,0.19441299,0.6002164,0.5205195,0.62917626,0.04400395,0.2687515,-0.13310456,1.234229,-0.37927863,-0.3327248,803.8461,846.9597,810.293,790.9524,752.674,1132.6373,-0.1112060546875,0.0863037109375,0.97576904296875,2.968292236328125,2.459869384765625,-2.205657958984375,3.48474358974359E8,3.023855677655678E8,1908278.3882783882,63.18248,1,1.0,1.0,1.0,1.0,95.00
2025-10-22 13:35:44.436,0.40173492,0.2896937,0.5936893,0.49710613,0.64409107,0.15602419,-0.10452438,0.58297354,0.6412876,0.6744682,0.19441299,0.6002164,0.5205195,0.62917626,0.04400395,0.2687515,-0.13310456,1.234229,-0.37927863,-0.3327248,799.81683,780.4762,805.8608,789.7436,760.7326,970.2564,-0.1112060546875,0.0863037109375,0.97576904296875,2.968292236328125,2.459869384765625,-2.205657958984375,3.48474358974359E8,3.023855677655678E8,1908278.3882783882,63.18248,1,1.0,1.0,1.0,1.0,95.00
2025-10-22 13:35:44.437,0.40173492,0.2896937,0.5936893,0.49710613,0.64409107,0.15602419,-0.10452438,0.58297354,0.6412876,0.6744682,0.19441299,0.6002164,0.5205195,0.62917626,0.04400395,0.2687515,-0.13310456,1.234229,-0.37927863,-0.3327248,800.2198,755.89746,802.23444,788.5348,810.293,706.337,-0.1112060546875,0.0863037109375,0.97576904296875,2.968292236328125,2.459869384765625,-2.205657958984375,3.48474358974359E8,3.023855677655678E8,1908278.3882783882,63.18248,1,1.0,1.0,1.0,1.0,95.00
2025-10-22 13:35:44.437,0.40173492,0.2896937,0.5936893,0.49710613,0.64409107,0.15602419,-0.10452438,0.58297354,0.6412876,0.6744682,0.19441299,0.6002164,0.5205195,0.62917626,0.04400395,0.2687515,-0.13310456,1.234229,-0.37927863,-0.3327248,796.5934,791.75824,796.99634,786.52014,811.50183,620.10986,-0.1112060546875,0.0863037109375,0.97576904296875,2.968292236328125,2.459869384765625,-2.205657958984375,3.48474358974359E8,3.023855677655678E8,1908278.3882783882,63.18248,1,1.0,1.0,1.0,1.0,95.00
2025-10-22 13:35:44.437,0.40173492,0.2896937,0.5936893,0.49710613,0.64409107,0.15602419,-0.10452438,0.58297354,0.6412876,0.6744682,0.19441299,0.6002164,0.5205195,0.62917626,0.04400395,0.2687515,-0.13310456,1.234229,-0.37927863,-0.3327248,803.8461,828.022,795.38464,789.34064,812.71063,680.14655,-0.1112060546875,0.0863037109375,0.97576904296875,2.968292236328125,2.459869384765625,-2.205657958984375,3.48474358974359E8,3.023855677655678E8,1908278.3882783882,63.18248,1,1.0,1.0,1.0,1.0,95.00
2025-10-22 13:35:44.437,0.40173492,0.2896937,0.5936893,0.49710613,0.64409107,0.15602419,-0.10452438,0.58297354,0.6412876,0.6744682,0.19441299,0.6002164,0.5205195,0.62917626,0.04400395,0.2687515,-0.13310456,1.234229,-0.37927863,-0.3327248,804.65204,833.663,797.3993,790.9524,850.58606,956.55676,-0.1112060546875,0.0863037109375,0.97576904296875,2.968292236328125,2.459869384765625,-2.205657958984375,3.48474358974359E8,3.023855677655678E8,1908278.3882783882,63.18248,1,1.0,1.0,1.0,1.0,95.00
2025-10-22 13:35:44.438,0.40173492,0.2896937,0.5936893,0.49710613,0.64409107,0.15602419,-0.10452438,0.58297354,0.6412876,0.6744682,0.19441299,0.6002164,0.5205195,0.62917626,0.04400395,0.2687515,-0.13310456,1.234229,-0.37927863,-0.3327248,796.99634,776.4469,795.78754,790.54944,842.52747,971.8681,-0.1112060546875,0.0863037109375,0.97576904296875,2.968292236328125,2.459869384765625,-2.205657958984375,3.48474358974359E8,3.023855677655678E8,1908278.3882783882,63.18248,1,1.0,1.0,1.0,1.0,95.00
2025-10-22 13:35:44.438,0.40173492,0.2896937,0.5936893,0.49710613,0.64409107,0.15602419,-0.10452438,0.58297354,0.6412876,0.6744682,0.19441299,0.6002164,0.5205195,0.62917626,0.04400395,0.2687515,-0.13310456,1.234229,-0.37927863,-0.3327248,799.41394,768.3883,794.9817,792.1612,804.2491,654.35895,-0.1112060546875,0.0863037109375,0.97576904296875,2.968292236328125,2.459869384765625,-2.205657958984375,3.48474358974359E8,3.023855677655678E8,1908278.3882783882,63.18248,1,1.0,1.0,1.0,1.0,95.00
2025-10-22 13:35:44.438,0.40173492,0.2896937,0.5936893,0.49710613,0.64409107,0.15602419,-0.10452438,0.58297354,0.6412876,0.6744682,0.19441299,0.6002164,0.5205195,0.62917626,0.04400395,0.2687515,-0.13310456,1.234229,-0.37927863,-0.3327248,807.47253,827.2161,799.81683,796.99634,753.0769,663.6264,-0.1112060546875,0.0863037109375,0.97576904296875,2.968292236328125,2.459869384765625,-2.205657958984375,3.48474358974359E8,3.023855677655678E8,1908278.3882783882,63.18248,1,1.0,1.0,1.0,1.0,95.00
2025-10-22 13:35:44.439,0.40173492,0.2896937,0.5936893,0.49710613,0.64409107,0.15602419,-0.10452438,0.58297354,0.6412876,0.6744682,0.19441299,0.6002164,0.5205195,0.62917626,0.04400395,0.2687515,-0.13310456,1.234229,-0.37927863,-0.3327248,805.8608,805.8608,796.1905,796.5934,737.76556,743.00366,-0.1112060546875,0.0863037109375,0.97576904296875,2.968292236328125,2.459869384765625,-2.205657958984375,3.48474358974359E8,3.023855677655678E8,1908278.3882783882,63.18248,1,1.0,1.0,1.0,1.0,95.00
2025-10-22 13:35:44.439,0.40173492,0.2896937,0.5936893,0.49710613,0.64409107,0.15602419,-0.10452438,0.58297354,0.6412876,0.6744682,0.19441299,0.6002164,0.5205195,0.62917626,0.04400395,0.2687515,-0.13310456,1.234229,-0.37927863,-0.3327248,809.0842,790.54944,796.5934,795.38464,784.10254,752.27106,-0.1112060546875,0.0863037109375,0.97576904296875,2.968292236328125,2.459869384765625,-2.205657958984375,3.48474358974359E8,3.023855677655678E8,1908278.3882783882,63.18248,1,1.0,1.0,1.0,1.0,95.00
2025-10-22 13:35:44.439,0.40173492,0.2896937,0.5936893,0.49710613,0.64409107,0.15602419,-0.10452438,0.58297354,0.6412876,0.6744682,0.19441299,0.6002164,0.5205195,0.62917626,0.04400395,0.2687515,-0.13310456,1.234229,-0.37927863,-0.3327248,813.5165,810.293,801.8315,795.38464,744.61536,966.63007,-0.1112060546875,0.0863037109375,0.97576904296875,2.968292236328125,2.459869384765625,-2.205657958984375,3.48474358974359E8,3.023855677655678E8,1908278.3882783882,63.18248,1,1.0,1.0,1.0,1.0,95.00
2025-10-22 13:35:44.440,0.40173492,0.2896937,0.5936893,0.49710613,0.64409107,0.15602419,-0.10452438,0.58297354,0.6412876,0.6744682,0.19441299,0.6002164,0.5205195,0.62917626,0.04400395,0.2687515,-0.13310456,1.234229,-0.37927863,-0.3327248,809.0842,830.0366,799.011,792.1612,717.619,1058.0952,-0.1112060546875,0.0863037109375,0.97576904296875,2.968292236328125,2.459869384765625,-2.205657958984375,3.48474358974359E8,3.023855677655678E8,1908278.3882783882,63.18248,1,1.0,1.0,1.0,1.0,95.00
2025-10-22 13:35:44.440,0.40173492,0.2896937,0.5936893,0.49710613,0.64409107,0.15602419,-0.10452438,0.58297354,0.6412876,0.6744682,0.19441299,0.6002164,0.5205195,0.62917626,0.04400395,0.2687515,-0.13310456,1.234229,-0.37927863,-0.3327248,804.2491,809.0842,799.81683,790.9524,736.9597,1012.1612,-0.1112060546875,0.0863037109375,0.97576904296875,2.968292236328125,2.459869384765625,-2.205657958984375,3.48474358974359E8,3.023855677655678E8,1908278.3882783882,63.18248,1,1.0,1.0,1.0,1.0,95.00
2025-10-22 13:35:44.440,0.40173492,0.2896937,0.5936893,0.49710613,0.64409107,0.15602419,-0.10452438,0.58297354,0.6412876,0.6744682,0.19441299,0.6002164,0.5205195,0.62917626,0.04400395,0.2687515,-0.13310456,1.234229,-0.37927863,-0.3327248,801.8315,773.6264,801.4286,790.9524,776.04395,762.74725,-0.1112060546875,0.0863037109375,0.97576904296875,2.968292236328125,2.459869384765625,-2.205657958984375,3.48474358974359E8,3.023855677655678E8,1908278.3882783882,63.18248,1,1.0,1.0,1.0,1.0,95.00
2025-10-22 13:35:44.441,0.40173492,0.2896937,0.5936893,0.49710613,0.64409107,0.15602419,-0.10452438,0.58297354,0.6412876,0.6744682,0.19441299,0.6002164,0.5205195,0.62917626,0.04400395,0.2687515,-0.13310456,1.234229,-0.37927863,-0.3327248,798.20514,778.46155,800.6227,792.96704,814.3223,611.6484,-0.1112060546875,0.0863037109375,0.97576904296875,2.968292236328125,2.459869384765625,-2.205657958984375,3.48474358974359E8,3.023855677655678E8,1908278.3882783882,63.18248,1,1.0,1.0,1.0,1.0,95.00
2025-10-22 13:35:44.441,0.40173492,0.2896937,0.5936893,0.49710613,0.64409107,0.15602419,-0.10452438,0.58297354,0.6412876,0.6744682,0.19441299,0.6002164,0.5205195,0.62917626,0.04400395,0.2687515,-0.13310456,1.234229,-0.37927863,-0.3327248,801.02563,812.71063,803.0403,795.78754,785.7143,605.6044,-0.1112060546875,0.0863037109375,0.97576904296875,2.968292236328125,2.459869384765625,-2.205657958984375,3.48474358974359E8,3.023855677655678E8,1908278.3882783882,63.18248,1,1.0,1.0,1.0,1.0,95.00
2025-10-22 13:35:44.441,0.40173492,0.2896937,0.5936893,0.49710613,0.64409107,0.15602419,-0.10452438,0.58297354,0.6412876,0.6744682,0.19441299,0.6002164,0.5205195,0.62917626,0.04400395,0.2687515,-0.13310456,1.234229,-0.37927863,-0.3327248,805.4579,826.4103,803.44324,797.8022,783.69965,654.7619,-0.1112060546875,0.0863037109375,0.97576904296875,2.968292236328125,2.459869384765625,-2.205657958984375,3.48474358974359E8,3.023855677655678E8,1908278.3882783882,63.18248,1,1.0,1.0,1.0,1.0,95.00
2025-10-22 13:35:44.464,0.40173492,0.2896937,0.5936893,0.49710613,0.64409107,0.15602419,-0.10452438,0.58297354,0.6412876,0.6744682,0.19441299,0.6002164,0.5205195,0.62917626,0.04400395,0.2687515,-0.13310456,1.234229,-0.37927863,-0.3327248,806.6667,802.6374,806.6667,798.60803,844.1392,717.619,-0.11065673828125,0.09027099609375,0.97515869140625,-1.27105712890625,-0.321502685546875,2.100982666015625,3.493027838827839E8,3.0275384615384614E8,1922783.8827838828,63.18248,1,1.0,1.0,1.0,1.0,95.00
2025-10-22 13:35:44.465,0.40173492,0.2896937,0.5936893,0.49710613,0.64409107,0.15602419,-0.10452438,0.58297354,0.6412876,0.6744682,0.19441299,0.6002164,0.5205195,0.62917626,0.04400395,0.2687515,-0.13310456,1.234229,-0.37927863,-0.3327248,803.44324,775.64105,807.8755,794.17584,831.6484,698.68134,-0.11065673828125,0.09027099609375,0.97515869140625,-1.27105712890625,-0.321502685546875,2.100982666015625,3.493027838827839E8,3.0275384615384614E8,1922783.8827838828,63.18248,1,1.0,1.0,1.0,1.0,95.00
2025-10-22 13:35:44.465,0.40173492,0.2896937,0.5936893,0.49710613,0.64409107,0.15602419,-0.10452438,0.58297354,0.6412876,0.6744682,0.19441299,0.6002164,0.5205195,0.62917626,0.04400395,0.2687515,-0.13310456,1.234229,-0.37927863,-0.3327248,801.8315,804.65204,807.47253,792.96704,832.8571,725.6777,-0.11065673828125,0.09027099609375,0.97515869140625,-1.27105712890625,-0.321502685546875,2.100982666015625,3.493027838827839E8,3.0275384615384614E8,1922783.8827838828,63.18248,1,1.0,1.0,1.0,1.0,95.00
2025-10-22 13:35:44.465,0.40173492,0.2896937,0.5936893,0.49710613,0.64409107,0.15602419,-0.10452438,0.58297354,0.6412876,0.6744682,0.19441299,0.6002164,0.5205195,0.62917626,0.04400395,0.2687515,-0.13310456,1.234229,-0.37927863,-0.3327248,801.02563,817.5458,805.8608,797.8022,876.77655,795.38464,-0.11065673828125,0.09027099609375,0.97515869140625,-1.27105712890625,-0.321502685546875,2.100982666015625,3.493027838827839E8,3.0275384615384614E8,1922783.8827838828,63.18248,1,1.0,1.0,1.0,1.0,95.00
2025-10-22 13:35:44.465,0.40173492,0.2896937,0.5936893,0.49710613,0.64409107,0.15602419,-0.10452438,0.58297354,0.6412876,0.6744682,0.19441299,0.6002164,0.5205195,0.62917626,0.04400395,0.2687515,-0.13310456,1.234229,-0.37927863,-0.3327248,797.8022,796.5934,806.26373,794.9817,875.9707,789.34064,-0.11065673828125,0.09027099609375,0.97515869140625,-1.27105712890625,-0.321502685546875,2.100982666015625,3.493027838827839E8,3.0275384615384614E8,1922783.8827838828,63.18248,1,1.0,1.0,1.0,1.0,95.00
2025-10-22 13:35:44.465,0.40173492,0.2896937,0.5936893,0.49710613,0.64409107,0.15602419,-0.10452438,0.58297354,0.6412876,0.6744682,0.19441299,0.6002164,0.5205195,0.62917626,0.04400395,0.2687515,-0.13310456,1.234229,-0.37927863,-0.3327248,804.2491,799.81683,809.4872,795.78754,814.7253,906.5934,-0.11065673828125,0.09027099609375,0.97515869140625,-1.27105712890625,-0.321502685546875,2.100982666015625,3.493027838827839E8,3.0275384615384614E8,1922783.8827838828,63.18248,1,1.0,1.0,1.0,1.0,95.00
2025-10-22 13:35:44.465,0.40173492,0.2896937,0.5936893,0.49710613,0.64409107,0.15602419,-0.10452438,0.58297354,0.6412876,0.6744682,0.19441299,0.6002164,0.5205195,0.62917626,0.04400395,0.2687515,-0.13310456,1.234229,-0.37927863,-0.3327248,803.44324,808.68134,807.8755,797.8022,780.87915,1062.5275,-0.11065673828125,0.09027099609375,0.97515869140625,-1.27105712890625,-0.321502685546875,2.100982666015625,3.493027838827839E8,3.0275384615384614E8,1922783.8827838828,63.18248,1,1.0,1.0,1.0,1.0,95.00
2025-10-22 13:35:44.465,0.40173492,0.34137958,0.59374905,0.49710613,0.64409107,0.18122353,-0.1268952,0.58297354,0.6412876,0.6742946,0.17912126,0.6002164,0.5205195,0.64424115,0.020291265,0.2687515,-0.13310456,1.2449164,-0.39254335,-0.3327248,807.0696,811.0989,808.2784,799.41394,803.0403,977.50916,-0.11065673828125,0.09027099609375,0.97515869140625,-1.27105712890625,-0.321502685546875,2.100982666015625,3.493027838827839E8,3.0275384615384614E8,1922783.8827838828,63.18248,1,1.0,1.0,1.0,1.0,95.00
2025-10-22 13:35:44.467,0.40173492,0.34137958,0.59374905,0.49710613,0.64409107,0.18122353,-0.1268952,0.58297354,0.6412876,0.6742946,0.17912126,0.6002164,0.5205195,0.64424115,0.020291265,0.2687515,-0.13310456,1.2449164,-0.39254335,-0.3327248,805.4579,803.44324,804.65204,796.5934,805.8608,955.34796,-0.11065673828125,0.09027099609375,0.97515869140625,-1.27105712890625,-0.321502685546875,2.100982666015625,3.493027838827839E8,3.0275384615384614E8,1922783.8827838828,63.18248,1,1.0,1.0,1.0,1.0,95.00
2025-10-22 13:35:44.467,0.40173492,0.34137958,0.59374905,0.49710613,0.64409107,0.18122353,-0.1268952,0.58297354,0.6412876,0.6742946,0.17912126,0.6002164,0.5205195,0.64424115,0.020291265,0.2687515,-0.13310456,1.2449164,-0.39254335,-0.3327248,795.38464,762.74725,802.6374,793.36993,778.46155,707.5458,-0.11065673828125,0.09027099609375,0.97515869140625,-1.27105712890625,-0.321502685546875,2.100982666015625,3.493027838827839E8,3.0275384615384614E8,1922783.8827838828,63.18248,1,1.0,1.0,1.0,1.0,95.00
2025-10-22 13:35:44.467,0.40173492,0.34137958,0.59374905,0.49710613,0.64409107,0.18122353,-0.1268952,0.58297354,0.6412876,0.6742946,0.17912126,0.6002164,0.5205195,0.64424115,0.020291265,0.2687515,-0.13310456,1.2449164,-0.39254335,-0.3327248,799.81683,782.49084,803.44324,796.1905,759.92676,626.55676,-0.11065673828125,0.09027099609375,0.97515869140625,-1.27105712890625,-0.321502685546875,2.100982666015625,3.493027838827839E8,3.0275384615384614E8,1922783.8827838828,63.18248,1,1.0,1.0,1.0,1.0,95.00
2025-10-22 13:35:44.467,0.40173492,0.34137958,0.59374905,0.49710613,0.64409107,0.18122353,-0.1268952,0.58297354,0.6412876,0.6742946,0.17912126,0.6002164,0.5205195,0.64424115,0.020291265,0.2687515,-0.13310456,1.2449164,-0.39254335,-0.3327248,807.8755,842.9304,803.44324,799.81683,809.89014,1143.9194,-0.11065673828125,0.09027099609375,0.97515869140625,-1.27105712890625,-0.321502685546875,2.100982666015625,3.493027838827839E8,3.0275384615384614E8,1922783.8827838828,63.18248,1,1.0,1.0,1.0,1.0,95.00
2025-10-22 13:35:44.518,0.40173492,0.34137958,0.59374905,0.49710613,0.64409107,0.18122353,-0.1268952,0.58297354,0.6412876,0.6742946,0.17912126,0.6002164,0.5205195,0.64424115,0.020291265,0.2687515,-0.13310456,1.2449164,-0.39254335,-0.3327248,806.26373,782.8938,803.0403,792.5641,835.2747,898.5348,-0.11578369140625,0.1064453125,0.98187255859375,-1.48040771484375,-1.07666015625,2.7813720703125,3.493027838827839E8,3.0275384615384614E8,1922783.8827838828,63.18248,1,1.0,1.0,1.0,1.0,95.00
2025-10-22 13:35:44.519,0.40173492,0.34137958,0.59374905,0.49710613,0.64409107,0.18122353,-0.1268952,0.58297354,0.6412876,0.6742946,0.17912126,0.6002164,0.5205195,0.64424115,0.020291265,0.2687515,-0.13310456,1.2449164,-0.39254335,-0.3327248,805.4579,778.46155,803.8461,790.14655,868.315,666.8498,-0.11578369140625,0.1064453125,0.98187255859375,-1.48040771484375,-1.07666015625,2.7813720703125,3.493027838827839E8,3.0275384615384614E8,1922783.8827838828,63.18248,1,1.0,1.0,1.0,1.0,95.00
2025-10-22 13:35:44.519,0.40173492,0.34137958,0.59374905,0.49710613,0.64409107,0.18122353,-0.1268952,0.58297354,0.6412876,0.6742946,0.17912126,0.6002164,0.5205195,0.64424115,0.020291265,0.2687515,-0.13310456,1.2449164,-0.39254335,-0.3327248,801.8315,790.9524,806.26373,797.3993,887.25275,750.2564,-0.11578369140625,0.1064453125,0.98187255859375,-1.48040771484375,-1.07666015625,2.7813720703125,3.493027838827839E8,3.0275384615384614E8,1922783.8827838828,63.18248,1,1.0,1.0,1.0,1.0,95.00
2025-10-22 13:35:44.519,0.40173492,0.34137958,0.59374905,0.49710613,0.64409107,0.18122353,-0.1268952,0.58297354,0.6412876,0.6742946,0.17912126,0.6002164,0.5205195,0.64424115,0.020291265,0.2687515,-0.13310456,1.2449164,-0.39254335,-0.3327248,797.8022,803.44324,804.2491,798.60803,842.9304,689.81683,-0.11578369140625,0.1064453125,0.98187255859375,-1.48040771484375,-1.07666015625,2.7813720703125,3.493027838827839E8,3.0275384615384614E8,1922783.8827838828,63.18248,1,1.0,1.0,1.0,1.0,95.00
2025-10-22 13:35:44.520,0.40173492,0.34137958,0.59374905,0.49710613,0.64409107,0.18122353,-0.1268952,0.58297354,0.6412876,0.6742946,0.17912126,0.6002164,0.5205195,0.64424115,0.020291265,0.2687515,-0.13310456,1.2449164,-0.39254335,-0.3327248,803.0403,830.84247,801.02563,794.57874,869.12085,821.1722,-0.11578369140625,0.1064453125,0.98187255859375,-1.48040771484375,-1.07666015625,2.7813720703125,3.493027838827839E8,3.0275384615384614E8,1922783.8827838828,63.18248,1,1.0,1.0,1.0,1.0,95.00
2025-10-22 13:35:44.520,0.40173492,0.34137958,0.59374905,0.49710613,0.64409107,0.18122353,-0.1268952,0.58297354,0.6412876,0.6742946,0.17912126,0.6002164,0.5205195,0.64424115,0.020291265,0.2687515,-0.13310456,1.2449164,-0.39254335,-0.3327248,802.6374,839.707,799.011,788.93774,1037.9487,1245.4579,-0.11578369140625,0.1064453125,0.98187255859375,-1.48040771484375,-1.07666015625,2.7813720703125,3.493027838827839E8,3.0275384615384614E8,1922783.8827838828,63.18248,1,1.0,1.0,1.0,1.0,95.00
2025-10-22 13:35:44.521,0.40173492,0.34137958,0.59374905,0.49710613,0.64409107,0.18122353,-0.1268952,0.58297354,0.6412876,0.6742946,0.17912126,0.6002164,0.5205195,0.64424115,0.020291265,0.2687515,-0.13310456,1.2449164,-0.39254335,-0.3327248,801.4286,807.47253,796.99634,784.10254,1095.1648,1497.6923,-0.11578369140625,0.1064453125,0.98187255859375,-1.48040771484375,-1.07666015625,2.7813720703125,3.493027838827839E8,3.0275384615384614E8,1922783.8827838828,63.18248,1,1.0,1.0,1.0,1.0,95.00
2025-10-22 13:35:44.521,0.40173492,0.34137958,0.59374905,0.49710613,0.64409107,0.18122353,-0.1268952,0.58297354,0.6412876,0.6742946,0.17912126,0.6002164,0.5205195,0.64424115,0.020291265,0.2687515,-0.13310456,1.2449164,-0.39254335,-0.3327248,798.20514,779.2674,795.38464,783.2967,1017.8022,1378.8279,-0.11578369140625,0.1064453125,0.98187255859375,-1.48040771484375,-1.07666015625,2.7813720703125,3.493027838827839E8,3.0275384615384614E8,1922783.8827838828,63.18248,1,1.0,1.0,1.0,1.0,95.00
2025-10-22 13:35:44.521,0.40173492,0.34137958,0.59374905,0.49710613,0.64409107,0.18122353,-0.1268952,0.58297354,0.6412876,0.6742946,0.17912126,0.6002164,0.5205195,0.64424115,0.020291265,0.2687515,-0.13310456,1.2449164,-0.39254335,-0.3327248,798.60803,786.52014,794.17584,791.75824,1023.8461,1058.0952,-0.11578369140625,0.1064453125,0.98187255859375,-1.48040771484375,-1.07666015625,2.7813720703125,3.493027838827839E8,3.0275384615384614E8,1922783.8827838828,63.18248,1,1.0,1.0,1.0,1.0,95.00
2025-10-22 13:35:44.522,0.40173492,0.34137958,0.59374905,0.49710613,0.64409107,0.18122353,-0.1268952,0.58297354,0.6412876,0.6742946,0.17912126,0.6002164,0.5205195,0.64424115,0.020291265,0.2687515,-0.13310456,1.2449164,-0.39254335,-0.3327248,798.20514,799.011,794.9817,791.3553,1066.1538,1005.7143,-0.11578369140625,0.1064453125,0.98187255859375,-1.48040771484375,-1.07666015625,2.7813720703125,3.493027838827839E8,3.0275384615384614E8,1922783.8827838828,63.18248,1,1.0,1.0,1.0,1.0,95.00
2025-10-22 13:35:44.522,0.40173492,0.34137958,0.59374905,0.49710613,0.64409107,0.18122353,-0.1268952,0.58297354,0.6412876,0.6742946,0.17912126,0.6002164,0.5205195,0.64424115,0.020291265,0.2687515,-0.13310456,1.2449164,-0.39254335,-0.3327248,794.57874,786.52014,796.99634,785.7143,1087.9121,1069.7803,-0.11578369140625,0.1064453125,0.98187255859375,-1.48040771484375,-1.07666015625,2.7813720703125,3.493027838827839E8,3.0275384615384614E8,1922783.8827838828,63.18248,1,1.0,1.0,1.0,1.0,95.00
2025-10-22 13:35:44.522,0.40173492,0.34137958,0.59374905,0.49710613,0.64409107,0.18122353,-0.1268952,0.58297354,0.6412876,0.6742946,0.17912126,0.6002164,0.5205195,0.64424115,0.020291265,0.2687515,-0.13310456,1.2449164,-0.39254335,-0.3327248,796.5934,786.1172,796.99634,788.5348,1062.1245,1129.414,-0.11578369140625,0.1064453125,0.98187255859375,-1.48040771484375,-1.07666015625,2.7813720703125,3.493027838827839E8,3.0275384615384614E8,1922783.8827838828,63.18248,1,1.0,1.0,1.0,1.0,95.00
2025-10-22 13:35:44.573,0.40173492,0.34137958,0.59374905,0.49710613,0.64409107,0.18122353,-0.1268952,0.58297354,0.6412876,0.6742946,0.17912126,0.6002164,0.5205195,0.64424115,0.020291265,0.2687515,-0.13310456,1.2449164,-0.39254335,-0.3327248,803.0403,815.12823,799.41394,790.54944,1014.17584,1230.9524,-0.11700439453125,0.10662841796875,0.985107421875,0.58319091796875,-1.3458251953125,-0.082244873046875,3.4970893772893775E8,3.02876336996337E8,1918754.5787545787,63.18248,1,1.0,1.0,1.0,1.0,95.00
2025-10-22 13:35:44.574,0.40173492,0.34137958,0.59374905,0.49710613,0.64409107,0.18122353,-0.1268952,0.58297354,0.6412876,0.6742946,0.17912126,0.6002164,0.5205195,0.64424115,0.020291265,0.2687515,-0.13310456,1.2449164,-0.39254335,-0.3327248,806.6667,793.36993,802.6374,790.14655,1010.9524,1071.7949,-0.11700439453125,0.10662841796875,0.985107421875,0.58319091796875,-1.3458251953125,-0.082244873046875,3.4970893772893775E8,3.02876336996337E8,1918754.5787545787,63.18248,1,1.0,1.0,1.0,1.0,95.00
2025-10-22 13:35:44.574,0.40173492,0.34137958,0.59374905,0.49710613,0.64409107,0.18122353,-0.1268952,0.58297354,0.6412876,0.6742946,0.17912126,0.6002164,0.5205195,0.64424115,0.020291265,0.2687515,-0.13310456,1.2449164,-0.39254335,-0.3327248,801.8315,784.10254,800.6227,786.9231,988.7912,977.9121,-0.11700439453125,0.10662841796875,0.985107421875,0.58319091796875,-1.3458251953125,-0.082244873046875,3.4970893772893775E8,3.02876336996337E8,1918754.5787545787,63.18248,1,1.0,1.0,1.0,1.0,95.00
2025-10-22 13:35:44.575,0.40173492,0.34137958,0.59374905,0.49710613,0.64409107,0.18122353,-0.1268952,0.58297354,0.6412876,0.6742946,0.17912126,0.6002164,0.5205195,0.64424115,0.020291265,0.2687515,-0.13310456,1.2449164,-0.39254335,-0.3327248,800.2198,773.22345,797.8022,787.326,940.4396,898.93774,-0.11700439453125,0.10662841796875,0.985107421875,0.58319091796875,-1.3458251953125,-0.082244873046875,3.4970893772893775E8,3.02876336996337E8,1918754.5787545787,63.18248,1,1.0,1.0,1.0,1.0,95.00
2025-10-22 13:35:44.575,0.40173492,0.34137958,0.59374905,0.49710613,0.64409107,0.18122353,-0.1268952,0.58297354,0.6412876,0.6742946,0.17912126,0.6002164,0.5205195,0.64424115,0.020291265,0.2687515,-0.13310456,1.2449164,-0.39254335,-0.3327248,807.0696,813.91943,799.011,791.75824,943.663,856.63007,-0.11700439453125,0.10662841796875,0.985107421875,0.58319091796875,-1.3458251953125,-0.082244873046875,3.4970893772893775E8,3.02876336996337E8,1918754.5787545787,63.18248,1,1.0,1.0,1.0,1.0,95.00
2025-10-22 13:35:44.575,0.40173492,0.34137958,0.59374905,0.49710613,0.64409107,0.18122353,-0.1268952,0.58297354,0.6412876,0.6742946,0.17912126,0.6002164,0.5205195,0.64424115,0.020291265,0.2687515,-0.13310456,1.2449164,-0.39254335,-0.3327248,806.26373,855.42126,801.8315,788.93774,975.4945,1268.4249,-0.11700439453125,0.10662841796875,0.985107421875,0.58319091796875,-1.3458251953125,-0.082244873046875,3.4970893772893775E8,3.02876336996337E8,1918754.5787545787,63.18248,1,1.0,1.0,1.0,1.0,95.00
2025-10-22 13:35:44.576,0.40173492,0.34137958,0.59374905,0.49710613,0.64409107,0.18122353,-0.1268952,0.58297354,0.6412876,0.6742946,0.17912126,0.6002164,0.5205195,0.64424115,0.020291265,0.2687515,-0.13310456,1.2449164,-0.39254335,-0.3327248,801.4286,811.9048,799.41394,786.52014,975.4945,1451.3553,-0.11700439453125,0.10662841796875,0.985107421875,0.58319091796875,-1.3458251953125,-0.082244873046875,3.4970893772893775E8,3.02876336996337E8,1918754.5787545787,63.18248,1,1.0,1.0,1.0,1.0,95.00
2025-10-22 13:35:44.576,0.40173492,0.34137958,0.59374905,0.49710613,0.64409107,0.18122353,-0.1268952,0.58297354,0.6412876,0.6742946,0.17912126,0.6002164,0.5205195,0.64424115,0.020291265,0.2687515,-0.13310456,1.2449164,-0.39254335,-0.3327248,802.6374,745.0183,796.1905,789.7436,944.4689,1058.9011,-0.11700439453125,0.10662841796875,0.985107421875,0.58319091796875,-1.3458251953125,-0.082244873046875,3.4970893772893775E8,3.02876336996337E8,1918754.5787545787,63.18248,1,1.0,1.0,1.0,1.0,95.00
2025-10-22 13:35:44.577,0.40173492,0.34137958,0.59374905,0.49710613,0.64409107,0.18122353,-0.1268952,0.58297354,0.6412876,0.6742946,0.17912126,0.6002164,0.5205195,0.64424115,0.020291265,0.2687515,-0.13310456,1.2449164,-0.39254335,-0.3327248,803.44324,774.43225,798.20514,788.5348,882.8205,772.4176,-0.11700439453125,0.10662841796875,0.985107421875,0.58319091796875,-1.3458251953125,-0.082244873046875,3.4970893772893775E8,3.02876336996337E8,1918754.5787545787,63.18248,1,1.0,1.0,1.0,1.0,95.00
2025-10-22 13:35:44.577,0.40173492,0.34137958,0.5918965,0.49710613,0.64409107,0.18122353,-0.159299,0.58297354,0.6412876,0.6742946,0.16570058,0.6002164,0.5205195,0.64424115,-0.003731201,0.2687515,-0.13310456,1.2449164,-0.4078221,-0.3327248,802.6374,820.7692,801.02563,789.7436,954.5421,870.32965,-0.11700439453125,0.10662841796875,0.985107421875,0.58319091796875,-1.3458251953125,-0.082244873046875,3.4970893772893775E8,3.02876336996337E8,1918754.5787545787,63.18248,1,1.0,1.0,1.0,1.0,95.00
2025-10-22 13:35:44.579,0.40173492,0.34137958,0.5918965,0.49710613,0.64409107,0.18122353,-0.159299,0.58297354,0.6412876,0.6742946,0.16570058,0.6002164,0.5205195,0.64424115,-0.003731201,0.2687515,-0.13310456,1.2449164,-0.4078221,-0.3327248,809.0842,804.65204,801.02563,795.78754,955.7509,963.4066,-0.11700439453125,0.10662841796875,0.985107421875,0.58319091796875,-1.3458251953125,-0.082244873046875,3.4970893772893775E8,3.02876336996337E8,1918754.5787545787,63.18248,1,1.0,1.0,1.0,1.0,95.00
2025-10-22 13:35:44.579,0.40173492,0.34137958,0.5918965,0.49710613,0.64409107,0.18122353,-0.159299,0.58297354,0.6412876,0.6742946,0.16570058,0.6002164,0.5205195,0.64424115,-0.003731201,0.2687515,-0.13310456,1.2449164,-0.4078221,-0.3327248,811.9048,804.2491,801.02563,796.5934,859.85345,1168.4982,-0.11700439453125,0.10662841796875,0.985107421875,0.58319091796875,-1.3458251953125,-0.082244873046875,3.4970893772893775E8,3.02876336996337E8,1918754.5787545787,63.18248,1,1.0,1.0,1.0,1.0,95.00
2025-10-22 13:35:44.607,0.40173492,0.34137958,0.5918965,0.49710613,0.64409107,0.18122353,-0.159299,0.58297354,0.6412876,0.6742946,0.16570058,0.6002164,0.5205195,0.64424115,-0.003731201,0.2687515,-0.13310456,1.2449164,-0.4078221,-0.3327248,807.47253,799.81683,803.8461,799.81683,852.1978,1118.5348,-0.11700439453125,0.10662841796875,0.985107421875,0.58319091796875,-1.3458251953125,-0.082244873046875,3.4970893772893775E8,3.02876336996337E8,1918754.5787545787,63.18248,1,1.0,1.0,1.0,1.0,95.00
2025-10-22 13:35:44.608,0.40173492,0.34137958,0.5918965,0.49710613,0.64409107,0.18122353,-0.159299,0.58297354,0.6412876,0.6742946,0.16570058,0.6002164,0.5205195,0.64424115,-0.003731201,0.2687515,-0.13310456,1.2449164,-0.4078221,-0.3327248,809.89014,797.8022,802.23444,798.60803,889.67035,866.30035,-0.11700439453125,0.10662841796875,0.985107421875,0.58319091796875,-1.3458251953125,-0.082244873046875,3.4970893772893775E8,3.02876336996337E8,1918754.5787545787,63.18248,1,1.0,1.0,1.0,1.0,95.00
2025-10-22 13:35:44.608,0.40173492,0.34137958,0.5918965,0.49710613,0.64409107,0.18122353,-0.159299,0.58297354,0.6412876,0.6742946,0.16570058,0.6002164,0.5205195,0.64424115,-0.003731201,0.2687515,-0.13310456,1.2449164,-0.4078221,-0.3327248,813.5165,805.05493,797.8022,792.5641,896.9231,853.00366,-0.11700439453125,0.10662841796875,0.985107421875,0.58319091796875,-1.3458251953125,-0.082244873046875,3.4970893772893775E8,3.02876336996337E8,1918754.5787545787,63.18248,1,1.0,1.0,1.0,1.0,95.00
2025-10-22 13:35:44.608,0.40173492,0.34137958,0.5918965,0.49710613,0.64409107,0.18122353,-0.159299,0.58297354,0.6412876,0.6742946,0.16570058,0.6002164,0.5205195,0.64424115,-0.003731201,0.2687515,-0.13310456,1.2449164,-0.4078221,-0.3327248,810.696,800.6227,797.3993,791.75824,842.9304,983.1502,-0.11700439453125,0.10662841796875,0.985107421875,0.58319091796875,-1.3458251953125,-0.082244873046875,3.4970893772893775E8,3.02876336996337E8,1918754.5787545787,63.18248,1,1.0,1.0,1.0,1.0,95.00
2025-10-22 13:35:44.609,0.40173492,0.34137958,0.5918965,0.49710613,0.64409107,0.18122353,-0.159299,0.58297354,0.6412876,0.6742946,0.16570058,0.6002164,0.5205195,0.64424115,-0.003731201,0.2687515,-0.13310456,1.2449164,-0.4078221,-0.3327248,803.44324,783.2967,797.3993,790.9524,818.7546,913.8461,-0.11700439453125,0.10662841796875,0.985107421875,0.58319091796875,-1.3458251953125,-0.082244873046875,3.4970893772893775E8,3.02876336996337E8,1918754.5787545787,63.18248,1,1.0,1.0,1.0,1.0,95.00
2025-10-22 13:35:44.609,0.40173492,0.34137958,0.5918965,0.49710613,0.64409107,0.18122353,-0.159299,0.58297354,0.6412876,0.6742946,0.16570058,0.6002164,0.5205195,0.64424115,-0.003731201,0.2687515,-0.13310456,1.2449164,-0.4078221,-0.3327248,802.23444,841.7216,797.8022,793.7729,899.34064,1133.8462,-0.11700439453125,0.10662841796875,0.985107421875,0.58319091796875,-1.3458251953125,-0.082244873046875,3.4970893772893775E8,3.02876336996337E8,1918754.5787545787,63.18248,1,1.0,1.0,1.0,1.0,95.00
2025-10-22 13:35:44.610,0.40173492,0.34137958,0.5918965,0.49710613,0.64409107,0.18122353,-0.159299,0.58297354,0.6412876,0.6742946,0.16570058,0.6002164,0.5205195,0.64424115,-0.003731201,0.2687515,-0.13310456,1.2449164,-0.4078221,-0.3327248,810.293,826.4103,802.23444,796.99634,944.0659,1350.2197,-0.11700439453125,0.10662841796875,0.985107421875,0.58319091796875,-1.3458251953125,-0.082244873046875,3.4970893772893775E8,3.02876336996337E8,1918754.5787545787,63.18248,1,1.0,1.0,1.0,1.0,95.00
2025-10-22 13:35:44.610,0.40173492,0.34137958,0.5918965,0.49710613,0.64409107,0.18122353,-0.159299,0.58297354,0.6412876,0.6742946,0.16570058,0.6002164,0.5205195,0.64424115,-0.003731201,0.2687515,-0.13310456,1.2449164,-0.4078221,-0.3327248,813.91943,758.315,802.6374,792.96704,854.61536,974.68866,-0.11700439453125,0.10662841796875,0.985107421875,0.58319091796875,-1.3458251953125,-0.082244873046875,3.4970893772893775E8,3.02876336996337E8,1918754.5787545787,63.18248,1,1.0,1.0,1.0,1.0,95.00
2025-10-22 13:35:44.610,0.40173492,0.34137958,0.5918965,0.49710613,0.64409107,0.18122353,-0.159299,0.58297354,0.6412876,0.6742946,0.16570058,0.6002164,0.5205195,0.64424115,-0.003731201,0.2687515,-0.13310456,1.2449164,-0.4078221,-0.3327248,811.50183,766.77655,799.011,793.7729,847.3626,701.9048,-0.11700439453125,0.10662841796875,0.985107421875,0.58319091796875,-1.3458251953125,-0.082244873046875,3.4970893772893775E8,3.02876336996337E8,1918754.5787545787,63.18248,1,1.0,1.0,1.0,1.0,95.00
2025-10-22 13:35:44.611,0.40173492,0.34137958,0.5918965,0.49710613,0.64409107,0.18122353,-0.159299,0.58297354,0.6412876,0.6742946,0.16570058,0.6002164,0.5205195,0.64424115,-0.003731201,0.2687515,-0.13310456,1.2449164,-0.4078221,-0.3327248,809.4872,817.1429,800.2198,793.36993,844.1392,747.03296,-0.11700439453125,0.10662841796875,0.985107421875,0.58319091796875,-1.3458251953125,-0.082244873046875,3.4970893772893775E8,3.02876336996337E8,1918754.5787545787,63.18248,1,1.0,1.0,1.0,1.0,95.00
2025-10-22 13:35:44.611,0.40173492,0.34137958,0.5918965,0.49710613,0.64409107,0.18122353,-0.159299,0.58297354,0.6412876,0.6742946,0.16570058,0.6002164,0.5205195,0.64424115,-0.003731201,0.2687515,-0.13310456,1.2449164,-0.4078221,-0.3327248,813.91943,814.7253,803.8461,793.7729,798.20514,690.2198,-0.11700439453125,0.10662841796875,0.985107421875,0.58319091796875,-1.3458251953125,-0.082244873046875,3.4970893772893775E8,3.02876336996337E8,1918754.5787545787,63.18248,1,1.0,1.0,1.0,1.0,95.00
2025-10-22 13:35:44.611,0.40173492,0.34137958,0.5918965,0.49710613,0.64409107,0.18122353,-0.159299,0.58297354,0.6412876,0.6742946,0.16570058,0.6002164,0.5205195,0.64424115,-0.003731201,0.2687515,-0.13310456,1.2449164,-0.4078221,-0.3327248,813.91943,807.0696,805.8608,792.5641,862.27106,765.56775,-0.11700439453125,0.10662841796875,0.985107421875,0.58319091796875,-1.3458251953125,-0.082244873046875,3.4970893772893775E8,3.02876336996337E8,1918754.5787545787,63.18248,1,1.0,1.0,1.0,1.0,95.00
2025-10-22 13:35:44.662,0.40173492,0.34137958,0.5918965,0.49710613,0.64409107,0.18122353,-0.159299,0.58297354,0.6412876,0.6742946,0.16570058,0.6002164,0.5205195,0.64424115,-0.003731201,0.2687515,-0.13310456,1.2449164,-0.4078221,-0.3327248,803.0403,785.7143,803.8461,789.7436,882.4176,806.6667,-0.11529541015625,0.10015869140625,0.98553466796875,1.7047119140625,-0.70281982421875,-1.891632080078125,3.4958161172161174E8,3.028328205128205E8,1929230.7692307692,65.033615,1,1.0,1.0,1.0,1.0,95.00
2025-10-22 13:35:44.663,0.40173492,0.34137958,0.5918965,0.49710613,0.64409107,0.18122353,-0.159299,0.58297354,0.6412876,0.6742946,0.16570058,0.6002164,0.5205195,0.64424115,-0.003731201,0.2687515,-0.13310456,1.2449164,-0.4078221,-0.3327248,803.8461,804.65204,803.44324,792.5641,915.4579,782.49084,-0.11529541015625,0.10015869140625,0.98553466796875,1.7047119140625,-0.70281982421875,-1.891632080078125,3.4958161172161174E8,3.028328205128205E8,1929230.7692307692,65.033615,1,1.0,1.0,1.0,1.0,95.00
2025-10-22 13:35:44.663,0.40173492,0.34137958,0.5918965,0.49710613,0.64409107,0.18122353,-0.159299,0.58297354,0.6412876,0.6742946,0.16570058,0.6002164,0.5205195,0.64424115,-0.003731201,0.2687515,-0.13310456,1.2449164,-0.4078221,-0.3327248,803.8461,823.9927,808.2784,796.99634,897.72894,854.61536,-0.11529541015625,0.10015869140625,0.98553466796875,1.7047119140625,-0.70281982421875,-1.891632080078125,3.4958161172161174E8,3.028328205128205E8,1929230.7692307692,65.033615,1,1.0,1.0,1.0,1.0,95.00
2025-10-22 13:35:44.663,0.40173492,0.34137958,0.5918965,0.49710613,0.64409107,0.18122353,-0.159299,0.58297354,0.6412876,0.6742946,0.16570058,0.6002164,0.5205195,0.64424115,-0.003731201,0.2687515,-0.13310456,1.2449164,-0.4078221,-0.3327248,801.4286,802.6374,809.4872,795.78754,893.69965,898.1319,-0.11529541015625,0.10015869140625,0.98553466796875,1.7047119140625,-0.70281982421875,-1.891632080078125,3.4958161172161174E8,3.028328205128205E8,1929230.7692307692,65.033615,1,1.0,1.0,1.0,1.0,95.00
2025-10-22 13:35:44.664,0.40173492,0.34137958,0.5918965,0.49710613,0.64409107,0.18122353,-0.159299,0.58297354,0.6412876,0.6742946,0.16570058,0.6002164,0.5205195,0.64424115,-0.003731201,0.2687515,-0.13310456,1.2449164,-0.4078221,-0.3327248,807.0696,787.72894,803.8461,789.7436,920.696,868.315,-0.11529541015625,0.10015869140625,0.98553466796875,1.7047119140625,-0.70281982421875,-1.891632080078125,3.4958161172161174E8,3.028328205128205E8,1929230.7692307692,65.033615,1,1.0,1.0,1.0,1.0,95.00
2025-10-22 13:35:44.664,0.40173492,0.34137958,0.5918965,0.49710613,0.64409107,0.18122353,-0.159299,0.58297354,0.6412876,0.6742946,0.16570058,0.6002164,0.5205195,0.64424115,-0.003731201,0.2687515,-0.13310456,1.2449164,-0.4078221,-0.3327248,807.0696,820.3663,804.2491,790.14655,845.7509,1075.8242,-0.11529541015625,0.10015869140625,0.98553466796875,1.7047119140625,-0.70281982421875,-1.891632080078125,3.4958161172161174E8,3.028328205128205E8,1929230.7692307692,65.033615,1,1.0,1.0,1.0,1.0,95.00
2025-10-22 13:35:44.664,0.40173492,0.34137958,0.5918965,0.49710613,0.64409107,0.18122353,-0.159299,0.58297354,0.6412876,0.6742946,0.16570058,0.6002164,0.5205195,0.64424115,-0.003731201,0.2687515,-0.13310456,1.2449164,-0.4078221,-0.3327248,808.2784,830.4396,807.8755,796.99634,822.7839,1247.8755,-0.11529541015625,0.10015869140625,0.98553466796875,1.7047119140625,-0.70281982421875,-1.891632080078125,3.4958161172161174E8,3.028328205128205E8,1929230.7692307692,65.033615,1,1.0,1.0,1.0,1.0,95.00
2025-10-22 13:35:44.665,0.40173492,0.34137958,0.5918965,0.49710613,0.64409107,0.18122353,-0.159299,0.58297354,0.6412876,0.6742946,0.16570058,0.6002164,0.5205195,0.64424115,-0.003731201,0.2687515,-0.13310456,1.2449164,-0.4078221,-0.3327248,809.0842,790.14655,805.4579,796.5934,828.022,1107.2528,-0.11529541015625,0.10015869140625,0.98553466796875,1.7047119140625,-0.70281982421875,-1.891632080078125,3.4958161172161174E8,3.028328205128205E8,1929230.7692307692,65.033615,1,1.0,1.0,1.0,1.0,95.00
2025-10-22 13:35:44.665,0.40173492,0.34137958,0.5918965,0.49710613,0.64409107,0.18122353,-0.159299,0.58297354,0.6412876,0.6742946,0.16570058,0.6002164,0.5205195,0.64424115,-0.003731201,0.2687515,-0.13310456,1.2449164,-0.4078221,-0.3327248,809.4872,772.4176,805.8608,795.78754,888.86444,851.79486,-0.11529541015625,0.10015869140625,0.98553466796875,1.7047119140625,-0.70281982421875,-1.891632080078125,3.4958161172161174E8,3.028328205128205E8,1929230.7692307692,65.033615,1,1.0,1.0,1.0,1.0,95.00
2025-10-22 13:35:44.665,0.40173492,0.34137958,0.5918965,0.49710613,0.64409107,0.18122353,-0.159299,0.58297354,0.6412876,0.6742946,0.16570058,0.6002164,0.5205195,0.64424115,-0.003731201,0.2687515,-0.13310456,1.2449164,-0.4078221,-0.3327248,803.8461,780.87915,806.26373,796.5934,875.9707,694.2491,-0.11529541015625,0.10015869140625,0.98553466796875,1.7047119140625,-0.70281982421875,-1.891632080078125,3.4958161172161174E8,3.028328205128205E8,1929230.7692307692,65.033615,1,1.0,1.0,1.0,1.0,95.00
2025-10-22 13:35:44.666,0.40173492,0.34137958,0.5918965,0.49710613,0.64409107,0.18122353,-0.159299,0.58297354,0.6412876,0.6742946,0.16570058,0.6002164,0.5205195,0.64424115,-0.003731201,0.2687515,-0.13310456,1.2449164,-0.4078221,-0.3327248,801.02563,818.7546,801.8315,796.99634,824.7985,679.7436,-0.11529541015625,0.10015869140625,0.98553466796875,1.7047119140625,-0.70281982421875,-1.891632080078125,3.4958161172161174E8,3.028328205128205E8,1929230.7692307692,65.033615,1,1.0,1.0,1.0,1.0,95.00
2025-10-22 13:35:44.666,0.40173492,0.34137958,0.58111256,0.49710613,0.64409107,0.18122353,-0.19838254,0.58297354,0.6412876,0.6742946,0.15369596,0.6002164,0.5205195,0.64424115,-0.023868341,0.2687515,-0.13310456,1.2449164,-0.43105143,-0.3327248,809.4872,837.6923,803.0403,795.38464,801.4286,898.93774,-0.11529541015625,0.10015869140625,0.98553466796875,1.7047119140625,-0.70281982421875,-1.891632080078125,3.4958161172161174E8,3.028328205128205E8,1929230.7692307692,65.033615,1,1.0,1.0,1.0,1.0,95.00
2025-10-22 13:35:44.719,0.40173492,0.34137958,0.58111256,0.49710613,0.64409107,0.18122353,-0.19838254,0.58297354,0.6412876,0.6742946,0.15369596,0.6002164,0.5205195,0.64424115,-0.023868341,0.2687515,-0.13310456,1.2449164,-0.43105143,-0.3327248,810.293,800.6227,800.2198,791.75824,807.47253,963.00366,-0.1146240234375,0.09320068359375,0.97918701171875,0.635528564453125,-1.054229736328125,-1.016845703125,3.4958161172161174E8,3.028328205128205E8,1929230.7692307692,65.033615,1,1.0,1.0,1.0,1.0,95.00
2025-10-22 13:35:44.720,0.40173492,0.34137958,0.58111256,0.49710613,0.64409107,0.18122353,-0.19838254,0.58297354,0.6412876,0.6742946,0.15369596,0.6002164,0.5205195,0.64424115,-0.023868341,0.2687515,-0.13310456,1.2449164,-0.43105143,-0.3327248,800.2198,769.59705,797.8022,792.5641,825.2015,740.18317,-0.1146240234375,0.09320068359375,0.97918701171875,0.635528564453125,-1.054229736328125,-1.016845703125,3.4958161172161174E8,3.028328205128205E8,1929230.7692307692,65.033615,1,1.0,1.0,1.0,1.0,95.00
2025-10-22 13:35:44.721,0.40173492,0.34137958,0.58111256,0.49710613,0.64409107,0.18122353,-0.19838254,0.58297354,0.6412876,0.6742946,0.15369596,0.6002164,0.5205195,0.64424115,-0.023868341,0.2687515,-0.13310456,1.2449164,-0.43105143,-0.3327248,797.3993,799.011,799.81683,788.5348,782.8938,649.5238,-0.1146240234375,0.09320068359375,0.97918701171875,0.635528564453125,-1.054229736328125,-1.016845703125,3.4958161172161174E8,3.028328205128205E8,1929230.7692307692,65.033615,1,1.0,1.0,1.0,1.0,95.00
2025-10-22 13:35:44.721,0.40173492,0.34137958,0.58111256,0.49710613,0.64409107,0.18122353,-0.19838254,0.58297354,0.6412876,0.6742946,0.15369596,0.6002164,0.5205195,0.64424115,-0.023868341,0.2687515,-0.13310456,1.2449164,-0.43105143,-0.3327248,799.41394,817.1429,800.2198,781.28204,822.7839,744.61536,-0.1146240234375,0.09320068359375,0.97918701171875,0.635528564453125,-1.054229736328125,-1.016845703125,3.4958161172161174E8,3.028328205128205E8,1929230.7692307692,65.033615,1,1.0,1.0,1.0,1.0,95.00
2025-10-22 13:35:44.722,0.40173492,0.34137958,0.58111256,0.49710613,0.64409107,0.18122353,-0.19838254,0.58297354,0.6412876,0.6742946,0.15369596,0.6002164,0.5205195,0.64424115,-0.023868341,0.2687515,-0.13310456,1.2449164,-0.43105143,-0.3327248,793.36993,798.20514,796.99634,782.0879,844.1392,787.326,-0.1146240234375,0.09320068359375,0.97918701171875,0.635528564453125,-1.054229736328125,-1.016845703125,3.4958161172161174E8,3.028328205128205E8,1929230.7692307692,65.033615,1,1.0,1.0,1.0,1.0,95.00
2025-10-22 13:35:44.722,0.40173492,0.34137958,0.58111256,0.49710613,0.64409107,0.18122353,-0.19838254,0.58297354,0.6412876,0.6742946,0.15369596,0.6002164,0.5205195,0.64424115,-0.023868341,0.2687515,-0.13310456,1.2449164,-0.43105143,-0.3327248,789.7436,798.20514,796.5934,784.90845,766.3736,991.2088,-0.1146240234375,0.09320068359375,0.97918701171875,0.635528564453125,-1.054229736328125,-1.016845703125,3.4958161172161174E8,3.028328205128205E8,1929230.7692307692,65.033615,1,1.0,1.0,1.0,1.0,95.00
2025-10-22 13:35:44.722,0.40173492,0.34137958,0.58111256,0.49710613,0.64409107,0.18122353,-0.19838254,0.58297354,0.6412876,0.6742946,0.15369596,0.6002164,0.5205195,0.64424115,-0.023868341,0.2687515,-0.13310456,1.2449164,-0.43105143,-0.3327248,788.93774,804.2491,796.5934,779.2674,759.92676,1135.0549,-0.1146240234375,0.09320068359375,0.97918701171875,0.635528564453125,-1.054229736328125,-1.016845703125,3.4958161172161174E8,3.028328205128205E8,1929230.7692307692,65.033615,1,1.0,1.0,1.0,1.0,95.00
2025-10-22 13:35:44.723,0.40173492,0.34137958,0.58111256,0.49710613,0.64409107,0.18122353,-0.19838254,0.58297354,0.6412876,0.6742946,0.15369596,0.6002164,0.5205195,0.64424115,-0.023868341,0.2687515,-0.13310456,1.2449164,-0.43105143,-0.3327248,792.5641,792.5641,796.99634,780.4762,831.6484,900.54944,-0.1146240234375,0.09320068359375,0.97918701171875,0.635528564453125,-1.054229736328125,-1.016845703125,3.4958161172161174E8,3.028328205128205E8,1929230.7692307692,65.033615,1,1.0,1.0,1.0,1.0,95.00
2025-10-22 13:35:44.723,0.40173492,0.34137958,0.58111256,0.49710613,0.64409107,0.18122353,-0.19838254,0.58297354,0.6412876,0.6742946,0.15369596,0.6002164,0.5205195,0.64424115,-0.023868341,0.2687515,-0.13310456,1.2449164,-0.43105143,-0.3327248,799.011,784.5055,799.41394,784.5055,848.5714,728.0952,-0.1146240234375,0.09320068359375,0.97918701171875,0.635528564453125,-1.054229736328125,-1.016845703125,3.4958161172161174E8,3.028328205128205E8,1929230.7692307692,65.033615,1,1.0,1.0,1.0,1.0,95.00
2025-10-22 13:35:44.723,0.40173492,0.34137958,0.58111256,0.49710613,0.64409107,0.18122353,-0.19838254,0.58297354,0.6412876,0.6742946,0.15369596,0.6002164,0.5205195,0.64424115,-0.023868341,0.2687515,-0.13310456,1.2449164,-0.43105143,-0.3327248,799.41394,776.8498,800.2198,784.10254,818.3516,693.8461,-0.1146240234375,0.09320068359375,0.97918701171875,0.635528564453125,-1.054229736328125,-1.016845703125,3.4958161172161174E8,3.028328205128205E8,1929230.7692307692,65.033615,1,1.0,1.0,1.0,1.0,95.00
2025-10-22 13:35:44.724,0.40173492,0.34137958,0.58111256,0.49710613,0.64409107,0.18122353,-0.19838254,0.58297354,0.6412876,0.6742946,0.15369596,0.6002164,0.5205195,0.64424115,-0.023868341,0.2687515,-0.13310456,1.2449164,-0.43105143,-0.3327248,798.60803,802.6374,803.44324,788.5348,813.1135,861.8681,-0.1146240234375,0.09320068359375,0.97918701171875,0.635528564453125,-1.054229736328125,-1.016845703125,3.4958161172161174E8,3.028328205128205E8,1929230.7692307692,65.033615,1,1.0,1.0,1.0,1.0,95.00
2025-10-22 13:35:44.724,0.40173492,0.34137958,0.58111256,0.49710613,0.64409107,0.18122353,-0.19838254,0.58297354,0.6412876,0.6742946,0.15369596,0.6002164,0.5205195,0.64424115,-0.023868341,0.2687515,-0.13310456,1.2449164,-0.43105143,-0.3327248,799.81683,810.293,803.44324,791.75824,780.87915,759.12085,-0.1146240234375,0.09320068359375,0.97918701171875,0.635528564453125,-1.054229736328125,-1.016845703125,3.4958161172161174E8,3.028328205128205E8,1929230.7692307692,65.033615,1,1.0,1.0,1.0,1.0,95.00
2025-10-22 13:35:44.754,0.40173492,0.34137958,0.58111256,0.49710613,0.64409107,0.18122353,-0.19838254,0.58297354,0.6412876,0.6742946,0.15369596,0.6002164,0.5205195,0.64424115,-0.023868341,0.2687515,-0.13310456,1.2449164,-0.43105143,-0.3327248,799.81683,803.44324,800.6227,791.75824,774.43225,664.43225,-0.11248779296875,0.1002197265625,0.9871826171875,-0.097198486328125,-0.127105712890625,0.3289794921875,3.495010256410256E8,3.0284893772893775E8,1917948.717948718,66.77642,1,1.0,1.0,1.0,1.0,95.00
2025-10-22 13:35:44.755,0.40173492,0.34137958,0.58111256,0.49710613,0.64409107,0.18122353,-0.19838254,0.58297354,0.6412876,0.6742946,0.15369596,0.6002164,0.5205195,0.64424115,-0.023868341,0.2687515,-0.13310456,1.2449164,-0.43105143,-0.3327248,798.60803,785.7143,803.0403,792.1612,772.01465,642.27106,-0.11248779296875,0.1002197265625,0.9871826171875,-0.097198486328125,-0.127105712890625,0.3289794921875,3.495010256410256E8,3.0284893772893775E8,1917948.717948718,66.77642,1,1.0,1.0,1.0,1.0,95.00
2025-10-22 13:35:44.755,0.40173492,0.34137958,0.58111256,0.49710613,0.64409107,0.18122353,-0.19838254,0.58297354,0.6412876,0.6742946,0.15369596,0.6002164,0.5205195,0.64424115,-0.023868341,0.2687515,-0.13310456,1.2449164,-0.43105143,-0.3327248,797.8022,784.5055,803.8461,794.9817,722.8571,594.7253,-0.11248779296875,0.1002197265625,0.9871826171875,-0.097198486328125,-0.127105712890625,0.3289794921875,3.495010256410256E8,3.0284893772893775E8,1917948.717948718,66.77642,1,1.0,1.0,1.0,1.0,95.00
2025-10-22 13:35:44.756,0.40173492,0.34137958,0.58111256,0.49710613,0.64409107,0.18122353,-0.19838254,0.58297354,0.6412876,0.6742946,0.15369596,0.6002164,0.5205195,0.64424115,-0.023868341,0.2687515,-0.13310456,1.2449164,-0.43105143,-0.3327248,803.44324,821.5751,801.8315,796.99634,772.01465,698.2784,-0.11248779296875,0.1002197265625,0.9871826171875,-0.097198486328125,-0.127105712890625,0.3289794921875,3.495010256410256E8,3.0284893772893775E8,1917948.717948718,66.77642,1,1.0,1.0,1.0,1.0,95.00
2025-10-22 13:35:44.756,0.40173492,0.34137958,0.58111256,0.49710613,0.64409107,0.18122353,-0.19838254,0.58297354,0.6412876,0.6742946,0.15369596,0.6002164,0.5205195,0.64424115,-0.023868341,0.2687515,-0.13310456,1.2449164,-0.43105143,-0.3327248,803.8461,821.5751,802.6374,797.8022,796.99634,759.92676,-0.11248779296875,0.1002197265625,0.9871826171875,-0.097198486328125,-0.127105712890625,0.3289794921875,3.495010256410256E8,3.0284893772893775E8,1917948.717948718,66.77642,1,1.0,1.0,1.0,1.0,95.00
2025-10-22 13:35:44.756,0.40173492,0.34137958,0.58111256,0.49710613,0.64409107,0.18122353,-0.19838254,0.58297354,0.6412876,0.6742946,0.15369596,0.6002164,0.5205195,0.64424115,-0.023868341,0.2687515,-0.13310456,1.2449164,-0.43105143,-0.3327248,803.44324,820.7692,807.0696,796.5934,752.674,971.06226,-0.11248779296875,0.1002197265625,0.9871826171875,-0.097198486328125,-0.127105712890625,0.3289794921875,3.495010256410256E8,3.0284893772893775E8,1917948.717948718,66.77642,1,1.0,1.0,1.0,1.0,95.00
2025-10-22 13:35:44.757,0.40173492,0.34137958,0.58111256,0.49710613,0.64409107,0.18122353,-0.19838254,0.58297354,0.6412876,0.6742946,0.15369596,0.6002164,0.5205195,0.64424115,-0.023868341,0.2687515,-0.13310456,1.2449164,-0.43105143,-0.3327248,800.2198,796.1905,803.8461,793.7729,801.4286,1168.4982,-0.11248779296875,0.1002197265625,0.9871826171875,-0.097198486328125,-0.127105712890625,0.3289794921875,3.495010256410256E8,3.0284893772893775E8,1917948.717948718,66.77642,1,1.0,1.0,1.0,1.0,95.00
2025-10-22 13:35:44.757,0.40173492,0.34137958,0.58111256,0.49710613,0.64409107,0.18122353,-0.19838254,0.58297354,0.6412876,0.6742946,0.15369596,0.6002164,0.5205195,0.64424115,-0.023868341,0.2687515,-0.13310456,1.2449164,-0.43105143,-0.3327248,799.41394,786.52014,799.41394,796.1905,815.12823,1054.4689,-0.11248779296875,0.1002197265625,0.9871826171875,-0.097198486328125,-0.127105712890625,0.3289794921875,3.495010256410256E8,3.0284893772893775E8,1917948.717948718,66.77642,1,1.0,1.0,1.0,1.0,95.00
2025-10-22 13:35:44.757,0.40173492,0.34137958,0.58111256,0.49710613,0.64409107,0.18122353,-0.19838254,0.58297354,0.6412876,0.6742946,0.15369596,0.6002164,0.5205195,0.64424115,-0.023868341,0.2687515,-0.13310456,1.2449164,-0.43105143,-0.3327248,801.02563,798.20514,801.4286,794.57874,795.78754,739.7802,-0.11248779296875,0.1002197265625,0.9871826171875,-0.097198486328125,-0.127105712890625,0.3289794921875,3.495010256410256E8,3.0284893772893775E8,1917948.717948718,66.77642,1,1.0,1.0,1.0,1.0,95.00
2025-10-22 13:35:44.758,0.40173492,0.34137958,0.58111256,0.49710613,0.64409107,0.18122353,-0.19838254,0.58297354,0.6412876,0.6742946,0.15369596,0.6002164,0.5205195,0.64424115,-0.023868341,0.2687515,-0.13310456,1.2449164,-0.43105143,-0.3327248,804.65204,801.4286,803.0403,794.17584,819.9634,655.9707,-0.11248779296875,0.1002197265625,0.9871826171875,-0.097198486328125,-0.127105712890625,0.3289794921875,3.495010256410256E8,3.0284893772893775E8,1917948.717948718,66.77642,1,1.0,1.0,1.0,1.0,95.00
2025-10-22 13:35:44.758,0.40173492,0.34137958,0.58111256,0.49710613,0.64409107,0.18122353,-0.19838254,0.58297354,0.6412876,0.6742946,0.15369596,0.6002164,0.5205195,0.64424115,-0.023868341,0.2687515,-0.13310456,1.2449164,-0.43105143,-0.3327248,800.2198,788.5348,801.8315,794.57874,796.99634,658.7912,-0.11248779296875,0.1002197265625,0.9871826171875,-0.097198486328125,-0.127105712890625,0.3289794921875,3.495010256410256E8,3.0284893772893775E8,1917948.717948718,66.77642,1,1.0,1.0,1.0,1.0,95.00
2025-10-22 13:35:44.758,0.40173492,0.34137958,0.58111256,0.49710613,0.64409107,0.18122353,-0.19838254,0.58297354,0.6412876,0.6742946,0.15369596,0.6002164,0.5205195,0.64424115,-0.023868341,0.2687515,-0.13310456,1.2449164,-0.43105143,-0.3327248,795.78754,821.1722,802.6374,792.96704,739.3773,846.55676,-0.11248779296875,0.1002197265625,0.9871826171875,-0.097198486328125,-0.127105712890625,0.3289794921875,3.495010256410256E8,3.0284893772893775E8,1917948.717948718,66.77642,1,1.0,1.0,1.0,1.0,95.00
2025-10-22 13:35:44.827,0.40173492,0.34137958,0.58111256,0.49710613,0.64409107,0.18122353,-0.19838254,0.58297354,0.6412876,0.6742946,0.15369596,0.6002164,0.5205195,0.64424115,-0.023868341,0.2687515,-0.13310456,1.2449164,-0.43105143,-0.3327248,802.23444,815.9341,801.8315,795.38464,758.315,841.7216,-0.11248779296875,0.1002197265625,0.9871826171875,-0.097198486328125,-0.127105712890625,0.3289794921875,3.495010256410256E8,3.0284893772893775E8,1917948.717948718,66.77642,1,1.0,1.0,1.0,1.0,95.00
2025-10-22 13:35:44.829,0.40173492,0.34137958,0.5473778,0.49710613,0.64409107,0.18122353,-0.23966448,0.58297354,0.6412876,0.6742946,0.175956,0.6002164,0.5205195,0.64424115,-0.043981053,0.2687515,-0.13310456,1.2449164,-0.4715276,-0.3327248,809.4872,810.293,803.8461,794.57874,787.326,815.5311,-0.11248779296875,0.1002197265625,0.9871826171875,-0.097198486328125,-0.127105712890625,0.3289794921875,3.495010256410256E8,3.0284893772893775E8,1917948.717948718,66.77642,1,1.0,1.0,1.0,1.0,95.00
2025-10-22 13:35:44.835,0.40173492,0.34137958,0.5473778,0.49710613,0.64409107,0.18122353,-0.23966448,0.58297354,0.6412876,0.6742946,0.175956,0.6002164,0.5205195,0.64424115,-0.043981053,0.2687515,-0.13310456,1.2449164,-0.4715276,-0.3327248,807.0696,794.9817,805.05493,792.1612,801.02563,878.3883,-0.11248779296875,0.1002197265625,0.9871826171875,-0.097198486328125,-0.127105712890625,0.3289794921875,3.495010256410256E8,3.0284893772893775E8,1917948.717948718,66.77642,1,1.0,1.0,1.0,1.0,95.00
2025-10-22 13:35:44.835,0.40173492,0.34137958,0.5473778,0.49710613,0.64409107,0.18122353,-0.23966448,0.58297354,0.6412876,0.6742946,0.175956,0.6002164,0.5205195,0.64424115,-0.043981053,0.2687515,-0.13310456,1.2449164,-0.4715276,-0.3327248,804.2491,780.4762,802.6374,794.17584,798.20514,677.326,-0.11248779296875,0.1002197265625,0.9871826171875,-0.097198486328125,-0.127105712890625,0.3289794921875,3.495010256410256E8,3.0284893772893775E8,1917948.717948718,66.77642,1,1.0,1.0,1.0,1.0,95.00
2025-10-22 13:35:44.836,0.40173492,0.34137958,0.5473778,0.49710613,0.64409107,0.18122353,-0.23966448,0.58297354,0.6412876,0.6742946,0.175956,0.6002164,0.5205195,0.64424115,-0.043981053,0.2687515,-0.13310456,1.2449164,-0.4715276,-0.3327248,807.0696,825.2015,803.44324,794.17584,744.21246,663.22345,-0.11248779296875,0.1002197265625,0.9871826171875,-0.097198486328125,-0.127105712890625,0.3289794921875,3.495010256410256E8,3.0284893772893775E8,1917948.717948718,66.77642,1,1.0,1.0,1.0,1.0,95.00
2025-10-22 13:35:44.837,0.40173492,0.34137958,0.5473778,0.49710613,0.64409107,0.18122353,-0.23966448,0.58297354,0.6412876,0.6742946,0.175956,0.6002164,0.5205195,0.64424115,-0.043981053,0.2687515,-0.13310456,1.2449164,-0.4715276,-0.3327248,807.8755,838.49817,805.4579,797.8022,769.59705,1038.3517,-0.11248779296875,0.1002197265625,0.9871826171875,-0.097198486328125,-0.127105712890625,0.3289794921875,3.495010256410256E8,3.0284893772893775E8,1917948.717948718,66.77642,1,1.0,1.0,1.0,1.0,95.00
2025-10-22 13:35:44.837,0.40173492,0.34137958,0.5473778,0.49710613,0.64409107,0.18122353,-0.23966448,0.58297354,0.6412876,0.6742946,0.175956,0.6002164,0.5205195,0.64424115,-0.043981053,0.2687515,-0.13310456,1.2449164,-0.4715276,-0.3327248,806.26373,790.9524,805.4579,798.20514,763.5531,1089.5238,-0.11248779296875,0.1002197265625,0.9871826171875,-0.097198486328125,-0.127105712890625,0.3289794921875,3.495010256410256E8,3.0284893772893775E8,1917948.717948718,66.77642,1,1.0,1.0,1.0,1.0,95.00
2025-10-22 13:35:44.838,0.40173492,0.34137958,0.5473778,0.49710613,0.64409107,0.18122353,-0.23966448,0.58297354,0.6412876,0.6742946,0.175956,0.6002164,0.5205195,0.64424115,-0.043981053,0.2687515,-0.13310456,1.2449164,-0.4715276,-0.3327248,805.8608,761.53845,802.23444,795.38464,748.6447,844.1392,-0.11248779296875,0.1002197265625,0.9871826171875,-0.097198486328125,-0.127105712890625,0.3289794921875,3.495010256410256E8,3.0284893772893775E8,1917948.717948718,66.77642,1,1.0,1.0,1.0,1.0,95.00
2025-10-22 13:35:44.838,0.40173492,0.34137958,0.5473778,0.49710613,0.64409107,0.18122353,-0.23966448,0.58297354,0.6412876,0.6742946,0.175956,0.6002164,0.5205195,0.64424115,-0.043981053,0.2687515,-0.13310456,1.2449164,-0.4715276,-0.3327248,810.696,799.81683,800.6227,799.41394,861.06226,726.8865,-0.11248779296875,0.1002197265625,0.9871826171875,-0.097198486328125,-0.127105712890625,0.3289794921875,3.495010256410256E8,3.0284893772893775E8,1917948.717948718,66.77642,1,1.0,1.0,1.0,1.0,95.00
2025-10-22 13:35:44.839,0.40173492,0.34137958,0.5473778,0.49710613,0.64409107,0.18122353,-0.23966448,0.58297354,0.6412876,0.6742946,0.175956,0.6002164,0.5205195,0.64424115,-0.043981053,0.2687515,-0.13310456,1.2449164,-0.4715276,-0.3327248,807.0696,810.696,798.60803,797.3993,906.99634,714.3956,-0.11248779296875,0.1002197265625,0.9871826171875,-0.097198486328125,-0.127105712890625,0.3289794921875,3.495010256410256E8,3.0284893772893775E8,1917948.717948718,66.77642,1,1.0,1.0,1.0,1.0,95.00
2025-10-22 13:35:44.840,0.40173492,0.34137958,0.5473778,0.49710613,0.64409107,0.18122353,-0.23966448,0.58297354,0.6412876,0.6742946,0.175956,0.6002164,0.5205195,0.64424115,-0.043981053,0.2687515,-0.13310456,1.2449164,-0.4715276,-0.3327248,801.4286,803.44324,798.60803,791.3553,892.0879,828.8278,-0.11248779296875,0.1002197265625,0.9871826171875,-0.097198486328125,-0.127105712890625,0.3289794921875,3.495010256410256E8,3.0284893772893775E8,1917948.717948718,66.77642,1,1.0,1.0,1.0,1.0,95.00
2025-10-22 13:35:44.840,0.40173492,0.34137958,0.5473778,0.49710613,0.64409107,0.18122353,-0.23966448,0.58297354,0.6412876,0.6742946,0.175956,0.6002164,0.5205195,0.64424115,-0.043981053,0.2687515,-0.13310456,1.2449164,-0.4715276,-0.3327248,796.99634,776.04395,796.99634,790.54944,872.74725,870.32965,-0.11248779296875,0.1002197265625,0.9871826171875,-0.097198486328125,-0.127105712890625,0.3289794921875,3.495010256410256E8,3.0284893772893775E8,1917948.717948718,66.77642,1,1.0,1.0,1.0,1.0,95.00
2025-10-22 13:35:44.866,0.40173492,0.34137958,0.5473778,0.49710613,0.64409107,0.18122353,-0.23966448,0.58297354,0.6412876,0.6742946,0.175956,0.6002164,0.5205195,0.64424115,-0.043981053,0.2687515,-0.13310456,1.2449164,-0.4715276,-0.3327248,796.5934,784.5055,796.1905,790.54944,810.696,652.3443,-0.1148681640625,0.10076904296875,0.982177734375,0.46356201171875,-0.157012939453125,0.725250244140625,3.494204395604395E8,3.0287794871794873E8,1915531.1355311354,68.417244,1,1.0,1.0,1.0,1.0,95.00
2025-10-22 13:35:44.867,0.40173492,0.34137958,0.5473778,0.49710613,0.64409107,0.18122353,-0.23966448,0.58297354,0.6412876,0.6742946,0.175956,0.6002164,0.5205195,0.64424115,-0.043981053,0.2687515,-0.13310456,1.2449164,-0.4715276,-0.3327248,796.5934,819.5604,799.41394,788.1319,810.293,657.98535,-0.1148681640625,0.10076904296875,0.982177734375,0.46356201171875,-0.157012939453125,0.725250244140625,3.494204395604395E8,3.0287794871794873E8,1915531.1355311354,68.417244,1,1.0,1.0,1.0,1.0,95.00
2025-10-22 13:35:44.867,0.40173492,0.34137958,0.5473778,0.49710613,0.64409107,0.18122353,-0.23966448,0.58297354,0.6412876,0.6742946,0.175956,0.6002164,0.5205195,0.64424115,-0.043981053,0.2687515,-0.13310456,1.2449164,-0.4715276,-0.3327248,800.6227,810.293,798.20514,785.7143,822.7839,808.2784,-0.1148681640625,0.10076904296875,0.982177734375,0.46356201171875,-0.157012939453125,0.725250244140625,3.494204395604395E8,3.0287794871794873E8,1915531.1355311354,68.417244,1,1.0,1.0,1.0,1.0,95.00
2025-10-22 13:35:44.867,0.40173492,0.34137958,0.5473778,0.49710613,0.64409107,0.18122353,-0.23966448,0.58297354,0.6412876,0.6742946,0.175956,0.6002164,0.5205195,0.64424115,-0.043981053,0.2687515,-0.13310456,1.2449164,-0.4715276,-0.3327248,799.011,774.0293,796.99634,787.326,824.3956,765.16486,-0.1148681640625,0.10076904296875,0.982177734375,0.46356201171875,-0.157012939453125,0.725250244140625,3.494204395604395E8,3.0287794871794873E8,1915531.1355311354,68.417244,1,1.0,1.0,1.0,1.0,95.00
2025-10-22 13:35:44.868,0.40173492,0.34137958,0.5473778,0.49710613,0.64409107,0.18122353,-0.23966448,0.58297354,0.6412876,0.6742946,0.175956,0.6002164,0.5205195,0.64424115,-0.043981053,0.2687515,-0.13310456,1.2449164,-0.4715276,-0.3327248,796.99634,785.7143,796.5934,786.52014,780.87915,656.3736,-0.1148681640625,0.10076904296875,0.982177734375,0.46356201171875,-0.157012939453125,0.725250244140625,3.494204395604395E8,3.0287794871794873E8,1915531.1355311354,68.417244,1,1.0,1.0,1.0,1.0,95.00
2025-10-22 13:35:44.868,0.40173492,0.34137958,0.5473778,0.49710613,0.64409107,0.18122353,-0.23966448,0.58297354,0.6412876,0.6742946,0.175956,0.6002164,0.5205195,0.64424115,-0.043981053,0.2687515,-0.13310456,1.2449164,-0.4715276,-0.3327248,800.2198,846.9597,797.8022,787.326,813.1135,977.9121,-0.1148681640625,0.10076904296875,0.982177734375,0.46356201171875,-0.157012939453125,0.725250244140625,3.494204395604395E8,3.0287794871794873E8,1915531.1355311354,68.417244,1,1.0,1.0,1.0,1.0,95.00
2025-10-22 13:35:44.868,0.40173492,0.34137958,0.5473778,0.49710613,0.64409107,0.18122353,-0.23966448,0.58297354,0.6412876,0.6742946,0.175956,0.6002164,0.5205195,0.64424115,-0.043981053,0.2687515,-0.13310456,1.2449164,-0.4715276,-0.3327248,800.2198,820.7692,798.60803,786.1172,890.07324,1278.9011,-0.1148681640625,0.10076904296875,0.982177734375,0.46356201171875,-0.157012939453125,0.725250244140625,3.494204395604395E8,3.0287794871794873E8,1915531.1355311354,68.417244,1,1.0,1.0,1.0,1.0,95.00
2025-10-22 13:35:44.869,0.40173492,0.34137958,0.5473778,0.49710613,0.64409107,0.18122353,-0.23966448,0.58297354,0.6412876,0.6742946,0.175956,0.6002164,0.5205195,0.64424115,-0.043981053,0.2687515,-0.13310456,1.2449164,-0.4715276,-0.3327248,801.02563,769.59705,799.81683,790.14655,852.1978,1181.392,-0.1148681640625,0.10076904296875,0.982177734375,0.46356201171875,-0.157012939453125,0.725250244140625,3.494204395604395E8,3.0287794871794873E8,1915531.1355311354,68.417244,1,1.0,1.0,1.0,1.0,95.00
2025-10-22 13:35:44.869,0.40173492,0.34137958,0.5473778,0.49710613,0.64409107,0.18122353,-0.23966448,0.58297354,0.6412876,0.6742946,0.175956,0.6002164,0.5205195,0.64424115,-0.043981053,0.2687515,-0.13310456,1.2449164,-0.4715276,-0.3327248,796.99634,763.1502,799.011,796.1905,784.5055,819.15753,-0.1148681640625,0.10076904296875,0.982177734375,0.46356201171875,-0.157012939453125,0.725250244140625,3.494204395604395E8,3.0287794871794873E8,1915531.1355311354,68.417244,1,1.0,1.0,1.0,1.0,95.00
2025-10-22 13:35:44.869,0.40173492,0.34137958,0.5473778,0.49710613,0.64409107,0.18122353,-0.23966448,0.58297354,0.6412876,0.6742946,0.175956,0.6002164,0.5205195,0.64424115,-0.043981053,0.2687515,-0.13310456,1.2449164,-0.4715276,-0.3327248,799.011,804.2491,801.4286,794.9817,789.7436,617.6923,-0.1148681640625,0.10076904296875,0.982177734375,0.46356201171875,-0.157012939453125,0.725250244140625,3.494204395604395E8,3.0287794871794873E8,1915531.1355311354,68.417244,1,1.0,1.0,1.0,1.0,95.00
2025-10-22 13:35:44.870,0.40173492,0.34137958,0.5473778,0.49710613,0.64409107,0.18122353,-0.23966448,0.58297354,0.6412876,0.6742946,0.175956,0.6002164,0.5205195,0.64424115,-0.043981053,0.2687515,-0.13310456,1.2449164,-0.4715276,-0.3327248,802.23444,822.381,802.23444,796.1905,778.0586,680.14655,-0.1148681640625,0.10076904296875,0.982177734375,0.46356201171875,-0.157012939453125,0.725250244140625,3.494204395604395E8,3.0287794871794873E8,1915531.1355311354,68.417244,1,1.0,1.0,1.0,1.0,95.00
2025-10-22 13:35:44.870,0.40173492,0.34137958,0.5473778,0.49710613,0.64409107,0.18122353,-0.23966448,0.58297354,0.6412876,0.6742946,0.175956,0.6002164,0.5205195,0.64424115,-0.043981053,0.2687515,-0.13310456,1.2449164,-0.4715276,-0.3327248,799.011,825.2015,801.4286,793.7729,776.8498,1091.9414,-0.1148681640625,0.10076904296875,0.982177734375,0.46356201171875,-0.157012939453125,0.725250244140625,3.494204395604395E8,3.0287794871794873E8,1915531.1355311354,68.417244,1,1.0,1.0,1.0,1.0,95.00
2025-10-22 13:35:44.897,0.40173492,0.34137958,0.5473778,0.49710613,0.64409107,0.18122353,-0.23966448,0.58297354,0.6412876,0.6742946,0.175956,0.6002164,0.5205195,0.64424115,-0.043981053,0.2687515,-0.13310456,1.2449164,-0.4715276,-0.3327248,801.4286,754.2857,798.60803,789.7436,707.1429,794.17584,-0.11419677734375,0.1068115234375,0.98602294921875,0.112152099609375,-0.037384033203125,0.64300537109375,3.494204395604395E8,3.0287794871794873E8,1915531.1355311354,68.417244,1,1.0,1.0,1.0,1.0,95.00
2025-10-22 13:35:44.898,0.40173492,0.34137958,0.5473778,0.49710613,0.64409107,0.18122353,-0.23966448,0.58297354,0.6412876,0.6742946,0.175956,0.6002164,0.5205195,0.64424115,-0.043981053,0.2687515,-0.13310456,1.2449164,-0.4715276,-0.3327248,807.0696,793.7729,799.81683,788.5348,676.9231,452.08792,-0.11419677734375,0.1068115234375,0.98602294921875,0.112152099609375,-0.037384033203125,0.64300537109375,3.494204395604395E8,3.0287794871794873E8,1915531.1355311354,68.417244,1,1.0,1.0,1.0,1.0,95.00
2025-10-22 13:35:44.899,0.40173492,0.34137958,0.5473778,0.49710613,0.64409107,0.18122353,-0.23966448,0.58297354,0.6412876,0.6742946,0.175956,0.6002164,0.5205195,0.64424115,-0.043981053,0.2687515,-0.13310456,1.2449164,-0.4715276,-0.3327248,805.4579,830.4396,801.02563,787.72894,761.9414,651.9414,-0.11419677734375,0.1068115234375,0.98602294921875,0.112152099609375,-0.037384033203125,0.64300537109375,3.494204395604395E8,3.0287794871794873E8,1915531.1355311354,68.417244,1,1.0,1.0,1.0,1.0,95.00
2025-10-22 13:35:44.899,0.40173492,0.34137958,0.47655,0.49710613,0.64409107,0.18122353,-0.27882335,0.58297354,0.6412876,0.6742946,0.21202347,0.6002164,0.5205195,0.64424115,-0.07210634,0.2687515,-0.13310456,1.2449164,-0.5347472,-0.3327248,800.6227,793.36993,800.2198,788.5348,794.57874,631.39197,-0.11419677734375,0.1068115234375,0.98602294921875,0.112152099609375,-0.037384033203125,0.64300537109375,3.494204395604395E8,3.0287794871794873E8,1915531.1355311354,68.417244,1,1.0,1.0,1.0,1.0,95.00
2025-10-22 13:35:44.901,0.40173492,0.34137958,0.47655,0.49710613,0.64409107,0.18122353,-0.27882335,0.58297354,0.6412876,0.6742946,0.21202347,0.6002164,0.5205195,0.64424115,-0.07210634,0.2687515,-0.13310456,1.2449164,-0.5347472,-0.3327248,802.23444,781.28204,801.4286,793.36993,786.52014,629.7802,-0.11419677734375,0.1068115234375,0.98602294921875,0.112152099609375,-0.037384033203125,0.64300537109375,3.494204395604395E8,3.0287794871794873E8,1915531.1355311354,68.417244,1,1.0,1.0,1.0,1.0,95.00
2025-10-22 13:35:44.901,0.40173492,0.34137958,0.47655,0.49710613,0.64409107,0.18122353,-0.27882335,0.58297354,0.6412876,0.6742946,0.21202347,0.6002164,0.5205195,0.64424115,-0.07210634,0.2687515,-0.13310456,1.2449164,-0.5347472,-0.3327248,801.02563,826.4103,799.41394,792.1612,805.8608,981.13556,-0.11419677734375,0.1068115234375,0.98602294921875,0.112152099609375,-0.037384033203125,0.64300537109375,3.494204395604395E8,3.0287794871794873E8,1915531.1355311354,68.417244,1,1.0,1.0,1.0,1.0,95.00
2025-10-22 13:35:44.901,0.40173492,0.34137958,0.47655,0.49710613,0.64409107,0.18122353,-0.27882335,0.58297354,0.6412876,0.6742946,0.21202347,0.6002164,0.5205195,0.64424115,-0.07210634,0.2687515,-0.13310456,1.2449164,-0.5347472,-0.3327248,803.8461,830.84247,799.81683,786.52014,832.4542,1133.8462,-0.11419677734375,0.1068115234375,0.98602294921875,0.112152099609375,-0.037384033203125,0.64300537109375,3.494204395604395E8,3.0287794871794873E8,1915531.1355311354,68.417244,1,1.0,1.0,1.0,1.0,95.00
2025-10-22 13:35:44.902,0.40173492,0.34137958,0.47655,0.49710613,0.64409107,0.18122353,-0.27882335,0.58297354,0.6412876,0.6742946,0.21202347,0.6002164,0.5205195,0.64424115,-0.07210634,0.2687515,-0.13310456,1.2449164,-0.5347472,-0.3327248,805.4579,779.2674,799.011,785.31134,865.4945,842.52747,-0.11419677734375,0.1068115234375,0.98602294921875,0.112152099609375,-0.037384033203125,0.64300537109375,3.494204395604395E8,3.0287794871794873E8,1915531.1355311354,68.417244,1,1.0,1.0,1.0,1.0,95.00
2025-10-22 13:35:44.902,0.40173492,0.34137958,0.47655,0.49710613,0.64409107,0.18122353,-0.27882335,0.58297354,0.6412876,0.6742946,0.21202347,0.6002164,0.5205195,0.64424115,-0.07210634,0.2687515,-0.13310456,1.2449164,-0.5347472,-0.3327248,799.81683,789.7436,797.3993,789.7436,825.6044,830.0366,-0.11419677734375,0.1068115234375,0.98602294921875,0.112152099609375,-0.037384033203125,0.64300537109375,3.494204395604395E8,3.0287794871794873E8,1915531.1355311354,68.417244,1,1.0,1.0,1.0,1.0,95.00
2025-10-22 13:35:44.903,0.40173492,0.34137958,0.47655,0.49710613,0.64409107,0.18122353,-0.27882335,0.58297354,0.6412876,0.6742946,0.21202347,0.6002164,0.5205195,0.64424115,-0.07210634,0.2687515,-0.13310456,1.2449164,-0.5347472,-0.3327248,800.6227,790.9524,794.9817,791.3553,752.674,765.56775,-0.11419677734375,0.1068115234375,0.98602294921875,0.112152099609375,-0.037384033203125,0.64300537109375,3.494204395604395E8,3.0287794871794873E8,1915531.1355311354,68.417244,1,1.0,1.0,1.0,1.0,95.00
2025-10-22 13:35:44.903,0.40173492,0.34137958,0.47655,0.49710613,0.64409107,0.18122353,-0.27882335,0.58297354,0.6412876,0.6742946,0.21202347,0.6002164,0.5205195,0.64424115,-0.07210634,0.2687515,-0.13310456,1.2449164,-0.5347472,-0.3327248,805.05493,810.696,797.3993,790.9524,758.315,593.91943,-0.11419677734375,0.1068115234375,0.98602294921875,0.112152099609375,-0.037384033203125,0.64300537109375,3.494204395604395E8,3.0287794871794873E8,1915531.1355311354,68.417244,1,1.0,1.0,1.0,1.0,95.00
2025-10-22 13:35:44.903,0.40173492,0.34137958,0.47655,0.49710613,0.64409107,0.18122353,-0.27882335,0.58297354,0.6412876,0.6742946,0.21202347,0.6002164,0.5205195,0.64424115,-0.07210634,0.2687515,-0.13310456,1.2449164,-0.5347472,-0.3327248,807.0696,813.5165,799.41394,791.3553,795.78754,671.685,-0.11419677734375,0.1068115234375,0.98602294921875,0.112152099609375,-0.037384033203125,0.64300537109375,3.494204395604395E8,3.0287794871794873E8,1915531.1355311354,68.417244,1,1.0,1.0,1.0,1.0,95.00
2025-10-22 13:35:44.937,0.40173492,0.34137958,0.47655,0.49710613,0.64409107,0.18122353,-0.27882335,0.58297354,0.6412876,0.6742946,0.21202347,0.6002164,0.5205195,0.64424115,-0.07210634,0.2687515,-0.13310456,1.2449164,-0.5347472,-0.3327248,803.44324,791.75824,798.60803,790.14655,836.4835,716.4103,-0.1201171875,0.1015625,0.97625732421875,-0.07476806640625,-0.142059326171875,0.456085205078125,3.492286446886447E8,3.0285296703296703E8,1914725.2747252746,69.96204,1,1.0,1.0,1.0,1.0,95.00
2025-10-22 13:35:44.938,0.40173492,0.34137958,0.47655,0.49710613,0.64409107,0.18122353,-0.27882335,0.58297354,0.6412876,0.6742946,0.21202347,0.6002164,0.5205195,0.64424115,-0.07210634,0.2687515,-0.13310456,1.2449164,-0.5347472,-0.3327248,792.96704,793.36993,798.60803,790.9524,845.7509,719.2308,-0.1201171875,0.1015625,0.97625732421875,-0.07476806640625,-0.142059326171875,0.456085205078125,3.492286446886447E8,3.0285296703296703E8,1914725.2747252746,69.96204,1,1.0,1.0,1.0,1.0,95.00
2025-10-22 13:35:44.938,0.40173492,0.34137958,0.47655,0.49710613,0.64409107,0.18122353,-0.27882335,0.58297354,0.6412876,0.6742946,0.21202347,0.6002164,0.5205195,0.64424115,-0.07210634,0.2687515,-0.13310456,1.2449164,-0.5347472,-0.3327248,794.9817,822.7839,800.6227,792.5641,844.5421,745.0183,-0.1201171875,0.1015625,0.97625732421875,-0.07476806640625,-0.142059326171875,0.456085205078125,3.492286446886447E8,3.0285296703296703E8,1914725.2747252746,69.96204,1,1.0,1.0,1.0,1.0,95.00
2025-10-22 13:35:44.938,0.40173492,0.34137958,0.47655,0.49710613,0.64409107,0.18122353,-0.27882335,0.58297354,0.6412876,0.6742946,0.21202347,0.6002164,0.5205195,0.64424115,-0.07210634,0.2687515,-0.13310456,1.2449164,-0.5347472,-0.3327248,806.26373,809.4872,800.2198,792.1612,832.8571,723.2601,-0.1201171875,0.1015625,0.97625732421875,-0.07476806640625,-0.142059326171875,0.456085205078125,3.492286446886447E8,3.0285296703296703E8,1914725.2747252746,69.96204,1,1.0,1.0,1.0,1.0,95.00
2025-10-22 13:35:44.939,0.40173492,0.34137958,0.47655,0.49710613,0.64409107,0.18122353,-0.27882335,0.58297354,0.6412876,0.6742946,0.21202347,0.6002164,0.5205195,0.64424115,-0.07210634,0.2687515,-0.13310456,1.2449164,-0.5347472,-0.3327248,804.65204,791.75824,801.4286,790.9524,812.71063,718.8278,-0.1201171875,0.1015625,0.97625732421875,-0.07476806640625,-0.142059326171875,0.456085205078125,3.492286446886447E8,3.0285296703296703E8,1914725.2747252746,69.96204,1,1.0,1.0,1.0,1.0,95.00
2025-10-22 13:35:44.939,0.40173492,0.34137958,0.47655,0.49710613,0.64409107,0.18122353,-0.27882335,0.58297354,0.6412876,0.6742946,0.21202347,0.6002164,0.5205195,0.64424115,-0.07210634,0.2687515,-0.13310456,1.2449164,-0.5347472,-0.3327248,801.8315,803.8461,804.2491,793.7729,781.28204,942.4542,-0.1201171875,0.1015625,0.97625732421875,-0.07476806640625,-0.142059326171875,0.456085205078125,3.492286446886447E8,3.0285296703296703E8,1914725.2747252746,69.96204,1,1.0,1.0,1.0,1.0,95.00
2025-10-22 13:35:44.939,0.40173492,0.34137958,0.47655,0.49710613,0.64409107,0.18122353,-0.27882335,0.58297354,0.6412876,0.6742946,0.21202347,0.6002164,0.5205195,0.64424115,-0.07210634,0.2687515,-0.13310456,1.2449164,-0.5347472,-0.3327248,803.44324,821.1722,805.8608,799.81683,751.06226,1051.2454,-0.1201171875,0.1015625,0.97625732421875,-0.07476806640625,-0.142059326171875,0.456085205078125,3.492286446886447E8,3.0285296703296703E8,1914725.2747252746,69.96204,1,1.0,1.0,1.0,1.0,95.00
2025-10-22 13:35:44.940,0.40173492,0.34137958,0.47655,0.49710613,0.64409107,0.18122353,-0.27882335,0.58297354,0.6412876,0.6742946,0.21202347,0.6002164,0.5205195,0.64424115,-0.07210634,0.2687515,-0.13310456,1.2449164,-0.5347472,-0.3327248,802.23444,788.5348,800.2198,801.02563,786.1172,853.8095,-0.1201171875,0.1015625,0.97625732421875,-0.07476806640625,-0.142059326171875,0.456085205078125,3.492286446886447E8,3.0285296703296703E8,1914725.2747252746,69.96204,1,1.0,1.0,1.0,1.0,95.00
2025-10-22 13:35:44.940,0.40173492,0.34137958,0.47655,0.49710613,0.64409107,0.18122353,-0.27882335,0.58297354,0.6412876,0.6742946,0.21202347,0.6002164,0.5205195,0.64424115,-0.07210634,0.2687515,-0.13310456,1.2449164,-0.5347472,-0.3327248,797.3993,780.07324,795.38464,791.75824,819.15753,679.34064,-0.1201171875,0.1015625,0.97625732421875,-0.07476806640625,-0.142059326171875,0.456085205078125,3.492286446886447E8,3.0285296703296703E8,1914725.2747252746,69.96204,1,1.0,1.0,1.0,1.0,95.00
2025-10-22 13:35:44.940,0.40173492,0.34137958,0.47655,0.49710613,0.64409107,0.18122353,-0.27882335,0.58297354,0.6412876,0.6742946,0.21202347,0.6002164,0.5205195,0.64424115,-0.07210634,0.2687515,-0.13310456,1.2449164,-0.5347472,-0.3327248,798.60803,783.2967,798.20514,791.3553,831.2454,670.07324,-0.1201171875,0.1015625,0.97625732421875,-0.07476806640625,-0.142059326171875,0.456085205078125,3.492286446886447E8,3.0285296703296703E8,1914725.2747252746,69.96204,1,1.0,1.0,1.0,1.0,95.00
2025-10-22 13:35:44.941,0.40173492,0.34137958,0.47655,0.49710613,0.64409107,0.18122353,-0.27882335,0.58297354,0.6412876,0.6742946,0.21202347,0.6002164,0.5205195,0.64424115,-0.07210634,0.2687515,-0.13310456,1.2449164,-0.5347472,-0.3327248,802.23444,800.6227,797.8022,795.78754,802.6374,666.4469,-0.1201171875,0.1015625,0.97625732421875,-0.07476806640625,-0.142059326171875,0.456085205078125,3.492286446886447E8,3.0285296703296703E8,1914725.2747252746,69.96204,1,1.0,1.0,1.0,1.0,95.00
2025-10-22 13:35:44.941,0.40173492,0.34137958,0.47655,0.49710613,0.64409107,0.18122353,-0.27882335,0.58297354,0.6412876,0.6742946,0.21202347,0.6002164,0.5205195,0.64424115,-0.07210634,0.2687515,-0.13310456,1.2449164,-0.5347472,-0.3327248,807.0696,852.1978,802.6374,797.8022,812.3077,972.674,-0.1201171875,0.1015625,0.97625732421875,-0.07476806640625,-0.142059326171875,0.456085205078125,3.492286446886447E8,3.0285296703296703E8,1914725.2747252746,69.96204,1,1.0,1.0,1.0,1.0,95.00
2025-10-22 13:35:44.980,0.40173492,0.34137958,0.47655,0.49710613,0.64409107,0.18122353,-0.27882335,0.58297354,0.6412876,0.6742946,0.21202347,0.6002164,0.5205195,0.64424115,-0.07210634,0.2687515,-0.13310456,1.2449164,-0.5347472,-0.3327248,807.8755,819.9634,807.8755,803.0403,827.2161,1123.773,-0.1295166015625,0.096435546875,0.9874267578125,1.457977294921875,-0.770111083984375,-0.19439697265625,3.492286446886447E8,3.0285296703296703E8,1914725.2747252746,69.96204,1,1.0,1.0,1.0,1.0,95.00
2025-10-22 13:35:44.980,0.40173492,0.34137958,0.47655,0.49710613,0.64409107,0.18122353,-0.27882335,0.58297354,0.6412876,0.6742946,0.21202347,0.6002164,0.5205195,0.64424115,-0.07210634,0.2687515,-0.13310456,1.2449164,-0.5347472,-0.3327248,807.47253,761.13556,809.4872,803.0403,853.4066,855.82416,-0.1295166015625,0.096435546875,0.9874267578125,1.457977294921875,-0.770111083984375,-0.19439697265625,3.492286446886447E8,3.0285296703296703E8,1914725.2747252746,69.96204,1,1.0,1.0,1.0,1.0,95.00
2025-10-22 13:35:44.981,0.40173492,0.34137958,0.47655,0.49710613,0.64409107,0.18122353,-0.27882335,0.58297354,0.6412876,0.6742946,0.21202347,0.6002164,0.5205195,0.64424115,-0.07210634,0.2687515,-0.13310456,1.2449164,-0.5347472,-0.3327248,804.65204,777.25275,806.6667,797.8022,816.337,663.6264,-0.1295166015625,0.096435546875,0.9874267578125,1.457977294921875,-0.770111083984375,-0.19439697265625,3.492286446886447E8,3.0285296703296703E8,1914725.2747252746,69.96204,1,1.0,1.0,1.0,1.0,95.00
2025-10-22 13:35:44.981,0.40173492,0.34137958,0.47655,0.49710613,0.64409107,0.18122353,-0.27882335,0.58297354,0.6412876,0.6742946,0.21202347,0.6002164,0.5205195,0.64424115,-0.07210634,0.2687515,-0.13310456,1.2449164,-0.5347472,-0.3327248,803.44324,821.1722,799.81683,795.78754,812.71063,701.0989,-0.1295166015625,0.096435546875,0.9874267578125,1.457977294921875,-0.770111083984375,-0.19439697265625,3.492286446886447E8,3.0285296703296703E8,1914725.2747252746,69.96204,1,1.0,1.0,1.0,1.0,95.00
2025-10-22 13:35:44.981,0.40173492,0.34137958,0.47655,0.49710613,0.64409107,0.18122353,-0.27882335,0.58297354,0.6412876,0.6742946,0.21202347,0.6002164,0.5205195,0.64424115,-0.07210634,0.2687515,-0.13310456,1.2449164,-0.5347472,-0.3327248,807.0696,811.0989,799.011,794.17584,862.674,732.9304,-0.1295166015625,0.096435546875,0.9874267578125,1.457977294921875,-0.770111083984375,-0.19439697265625,3.492286446886447E8,3.0285296703296703E8,1914725.2747252746,69.96204,1,1.0,1.0,1.0,1.0,95.00
2025-10-22 13:35:44.982,0.40173492,-0.59371895,0.35902557,0.49710613,0.64409107,-0.22774915,-0.3076735,0.58297354,0.6412876,0.03496533,0.21841978,0.6002164,0.5205195,0.7038528,-0.11096103,0.2687515,-0.13310456,1.2710614,-0.6199528,-0.3327248,809.89014,817.9487,800.6227,795.78754,844.5421,969.0476,-0.1295166015625,0.096435546875,0.9874267578125,1.457977294921875,-0.770111083984375,-0.19439697265625,3.492286446886447E8,3.0285296703296703E8,1914725.2747252746,69.96204,1,1.0,1.0,1.0,1.0,95.00
2025-10-22 13:35:44.983,0.40173492,-0.59371895,0.35902557,0.49710613,0.64409107,-0.22774915,-0.3076735,0.58297354,0.6412876,0.03496533,0.21841978,0.6002164,0.5205195,0.7038528,-0.11096103,0.2687515,-0.13310456,1.2710614,-0.6199528,-0.3327248,805.8608,799.81683,803.0403,796.5934,797.3993,1156.4103,-0.1295166015625,0.096435546875,0.9874267578125,1.457977294921875,-0.770111083984375,-0.19439697265625,3.492286446886447E8,3.0285296703296703E8,1914725.2747252746,69.96204,1,1.0,1.0,1.0,1.0,95.00
2025-10-22 13:35:44.984,0.40173492,-0.59371895,0.35902557,0.49710613,0.64409107,-0.22774915,-0.3076735,0.58297354,0.6412876,0.03496533,0.21841978,0.6002164,0.5205195,0.7038528,-0.11096103,0.2687515,-0.13310456,1.2710614,-0.6199528,-0.3327248,802.6374,780.07324,798.60803,789.7436,809.0842,826.8132,-0.1295166015625,0.096435546875,0.9874267578125,1.457977294921875,-0.770111083984375,-0.19439697265625,3.492286446886447E8,3.0285296703296703E8,1914725.2747252746,69.96204,1,1.0,1.0,1.0,1.0,95.00
2025-10-22 13:35:44.984,0.40173492,-0.59371895,0.35902557,0.49710613,0.64409107,-0.22774915,-0.3076735,0.58297354,0.6412876,0.03496533,0.21841978,0.6002164,0.5205195,0.7038528,-0.11096103,0.2687515,-0.13310456,1.2710614,-0.6199528,-0.3327248,803.8461,795.38464,794.17584,786.9231,823.5897,611.2454,-0.1295166015625,0.096435546875,0.9874267578125,1.457977294921875,-0.770111083984375,-0.19439697265625,3.492286446886447E8,3.0285296703296703E8,1914725.2747252746,69.96204,1,1.0,1.0,1.0,1.0,95.00
2025-10-22 13:35:44.984,0.40173492,-0.59371895,0.35902557,0.49710613,0.64409107,-0.22774915,-0.3076735,0.58297354,0.6412876,0.03496533,0.21841978,0.6002164,0.5205195,0.7038528,-0.11096103,0.2687515,-0.13310456,1.2710614,-0.6199528,-0.3327248,805.4579,797.3993,801.4286,788.5348,796.1905,640.65936,-0.1295166015625,0.096435546875,0.9874267578125,1.457977294921875,-0.770111083984375,-0.19439697265625,3.492286446886447E8,3.0285296703296703E8,1914725.2747252746,69.96204,1,1.0,1.0,1.0,1.0,95.00
2025-10-22 13:35:44.985,0.40173492,-0.59371895,0.35902557,0.49710613,0.64409107,-0.22774915,-0.3076735,0.58297354,0.6412876,0.03496533,0.21841978,0.6002164,0.5205195,0.7038528,-0.11096103,0.2687515,-0.13310456,1.2710614,-0.6199528,-0.3327248,806.6667,787.72894,803.44324,790.14655,818.3516,639.85345,-0.1295166015625,0.096435546875,0.9874267578125,1.457977294921875,-0.770111083984375,-0.19439697265625,3.492286446886447E8,3.0285296703296703E8,1914725.2747252746,69.96204,1,1.0,1.0,1.0,1.0,95.00
2025-10-22 13:35:44.985,0.40173492,-0.59371895,0.35902557,0.49710613,0.64409107,-0.22774915,-0.3076735,0.58297354,0.6412876,0.03496533,0.21841978,0.6002164,0.5205195,0.7038528,-0.11096103,0.2687515,-0.13310456,1.2710614,-0.6199528,-0.3327248,808.68134,811.50183,803.0403,791.75824,823.9927,651.53845,-0.1295166015625,0.096435546875,0.9874267578125,1.457977294921875,-0.770111083984375,-0.19439697265625,3.492286446886447E8,3.0285296703296703E8,1914725.2747252746,69.96204,1,1.0,1.0,1.0,1.0,95.00
2025-10-22 13:35:45.060,0.40173492,-0.59371895,0.35902557,0.49710613,0.64409107,-0.22774915,-0.3076735,0.58297354,0.6412876,0.03496533,0.21841978,0.6002164,0.5205195,0.7038528,-0.11096103,0.2687515,-0.13310456,1.2710614,-0.6199528,-0.3327248,811.50183,831.2454,805.8608,787.72894,771.2088,746.63007,-0.1295166015625,0.096435546875,0.9874267578125,1.457977294921875,-0.770111083984375,-0.19439697265625,3.490964835164835E8,3.0300527472527474E8,1920366.3003663004,71.41644,1,1.0,1.0,1.0,1.0,95.00
2025-10-22 13:35:45.061,0.40173492,-0.59371895,0.35902557,0.49710613,0.64409107,-0.22774915,-0.3076735,0.58297354,0.6412876,0.03496533,0.21841978,0.6002164,0.5205195,0.7038528,-0.11096103,0.2687515,-0.13310456,1.2710614,-0.6199528,-0.3327248,815.5311,804.65204,802.6374,786.52014,815.9341,751.8681,-0.1295166015625,0.096435546875,0.9874267578125,1.457977294921875,-0.770111083984375,-0.19439697265625,3.490964835164835E8,3.0300527472527474E8,1920366.3003663004,71.41644,1,1.0,1.0,1.0,1.0,95.00
2025-10-22 13:35:45.063,0.40173492,-0.59371895,0.35902557,0.49710613,0.64409107,-0.22774915,-0.3076735,0.58297354,0.6412876,0.03496533,0.21841978,0.6002164,0.5205195,0.7038528,-0.11096103,0.2687515,-0.13310456,1.2710614,-0.6199528,-0.3327248,813.5165,787.72894,796.5934,786.1172,802.23444,717.619,-0.1295166015625,0.096435546875,0.9874267578125,1.457977294921875,-0.770111083984375,-0.19439697265625,3.490964835164835E8,3.0300527472527474E8,1920366.3003663004,71.41644,1,1.0,1.0,1.0,1.0,95.00
2025-10-22 13:35:45.064,0.40173492,-0.59371895,0.35902557,0.49710613,0.64409107,-0.22774915,-0.3076735,0.58297354,0.6412876,0.03496533,0.21841978,0.6002164,0.5205195,0.7038528,-0.11096103,0.2687515,-0.13310456,1.2710614,-0.6199528,-0.3327248,810.293,817.9487,797.8022,785.7143,740.18317,900.14655,-0.1295166015625,0.096435546875,0.9874267578125,1.457977294921875,-0.770111083984375,-0.19439697265625,3.490964835164835E8,3.0300527472527474E8,1920366.3003663004,71.41644,1,1.0,1.0,1.0,1.0,95.00
2025-10-22 13:35:45.065,0.40173492,-0.59371895,0.35902557,0.49710613,0.64409107,-0.22774915,-0.3076735,0.58297354,0.6412876,0.03496533,0.21841978,0.6002164,0.5205195,0.7038528,-0.11096103,0.2687515,-0.13310456,1.2710614,-0.6199528,-0.3327248,807.8755,817.1429,803.44324,792.96704,769.19415,801.8315,-0.1295166015625,0.096435546875,0.9874267578125,1.457977294921875,-0.770111083984375,-0.19439697265625,3.490964835164835E8,3.0300527472527474E8,1920366.3003663004,71.41644,1,1.0,1.0,1.0,1.0,95.00
2025-10-22 13:35:45.066,0.40173492,-0.59371895,0.35902557,0.49710613,0.64409107,-0.22774915,-0.3076735,0.58297354,0.6412876,0.03496533,0.21841978,0.6002164,0.5205195,0.7038528,-0.11096103,0.2687515,-0.13310456,1.2710614,-0.6199528,-0.3327248,794.17584,828.022,801.02563,800.2198,791.3553,1000.4762,-0.1295166015625,0.096435546875,0.9874267578125,1.457977294921875,-0.770111083984375,-0.19439697265625,3.490964835164835E8,3.0300527472527474E8,1920366.3003663004,71.41644,1,1.0,1.0,1.0,1.0,95.00
2025-10-22 13:35:45.067,0.40173492,-0.59371895,0.35902557,0.49710613,0.64409107,-0.22774915,-0.3076735,0.58297354,0.6412876,0.03496533,0.21841978,0.6002164,0.5205195,0.7038528,-0.11096103,0.2687515,-0.13310456,1.2710614,-0.6199528,-0.3327248,782.49084,793.7729,801.02563,796.99634,784.5055,1186.63,-0.1295166015625,0.096435546875,0.9874267578125,1.457977294921875,-0.770111083984375,-0.19439697265625,3.490964835164835E8,3.0300527472527474E8,1920366.3003663004,71.41644,1,1.0,1.0,1.0,1.0,95.00
2025-10-22 13:35:45.068,0.40173492,-0.59371895,0.35902557,0.49710613,0.64409107,-0.22774915,-0.3076735,0.58297354,0.6412876,0.03496533,0.21841978,0.6002164,0.5205195,0.7038528,-0.11096103,0.2687515,-0.13310456,1.2710614,-0.6199528,-0.3327248,778.46155,751.06226,803.8461,797.8022,746.2271,728.49817,-0.1295166015625,0.096435546875,0.9874267578125,1.457977294921875,-0.770111083984375,-0.19439697265625,3.490964835164835E8,3.0300527472527474E8,1920366.3003663004,71.41644,1,1.0,1.0,1.0,1.0,95.00
2025-10-22 13:35:45.069,0.40173492,-0.59371895,0.35902557,0.49710613,0.64409107,-0.22774915,-0.3076735,0.58297354,0.6412876,0.03496533,0.21841978,0.6002164,0.5205195,0.7038528,-0.11096103,0.2687515,-0.13310456,1.2710614,-0.6199528,-0.3327248,777.6557,815.5311,801.8315,802.6374,763.1502,598.7546,-0.1295166015625,0.096435546875,0.9874267578125,1.457977294921875,-0.770111083984375,-0.19439697265625,3.490964835164835E8,3.0300527472527474E8,1920366.3003663004,71.41644,1,1.0,1.0,1.0,1.0,95.00
2025-10-22 13:35:45.069,0.40173492,-0.59371895,0.35902557,0.49710613,0.64409107,-0.22774915,-0.3076735,0.58297354,0.6412876,0.03496533,0.21841978,0.6002164,0.5205195,0.7038528,-0.11096103,0.2687515,-0.13310456,1.2710614,-0.6199528,-0.3327248,783.69965,818.3516,801.4286,798.60803,817.5458,701.50183,-0.1295166015625,0.096435546875,0.9874267578125,1.457977294921875,-0.770111083984375,-0.19439697265625,3.490964835164835E8,3.0300527472527474E8,1920366.3003663004,71.41644,1,1.0,1.0,1.0,1.0,95.00
2025-10-22 13:35:45.070,0.40173492,-0.59371895,0.35902557,0.49710613,0.64409107,-0.22774915,-0.3076735,0.58297354,0.6412876,0.03496533,0.21841978,0.6002164,0.5205195,0.7038528,-0.11096103,0.2687515,-0.13310456,1.2710614,-0.6199528,-0.3327248,790.14655,789.34064,803.0403,796.1905,789.7436,631.39197,-0.1295166015625,0.096435546875,0.9874267578125,1.457977294921875,-0.770111083984375,-0.19439697265625,3.490964835164835E8,3.0300527472527474E8,1920366.3003663004,71.41644,1,1.0,1.0,1.0,1.0,95.00
2025-10-22 13:35:45.070,0.40173492,-0.59371895,0.35902557,0.49710613,0.64409107,-0.22774915,-0.3076735,0.58297354,0.6412876,0.03496533,0.21841978,0.6002164,0.5205195,0.7038528,-0.11096103,0.2687515,-0.13310456,1.2710614,-0.6199528,-0.3327248,783.69965,821.1722,799.81683,794.17584,791.75824,943.2601,-0.1295166015625,0.096435546875,0.9874267578125,1.457977294921875,-0.770111083984375,-0.19439697265625,3.490964835164835E8,3.0300527472527474E8,1920366.3003663004,71.41644,1,1.0,1.0,1.0,1.0,95.00
2025-10-22 13:35:45.099,0.40173492,-0.59371895,0.35902557,0.49710613,0.64409107,-0.22774915,-0.3076735,0.58297354,0.6412876,0.03496533,0.21841978,0.6002164,0.5205195,0.7038528,-0.11096103,0.2687515,-0.13310456,1.2710614,-0.6199528,-0.3327248,788.5348,811.0989,799.41394,790.9524,811.50183,985.16486,-0.1324462890625,0.09295654296875,0.98358154296875,1.98883056640625,0.40374755859375,-0.859832763671875,3.490964835164835E8,3.0300527472527474E8,1920366.3003663004,71.41644,1,1.0,1.0,1.0,1.0,95.00
2025-10-22 13:35:45.099,0.40173492,-0.59371895,0.35902557,0.49710613,0.64409107,-0.22774915,-0.3076735,0.58297354,0.6412876,0.03496533,0.21841978,0.6002164,0.5205195,0.7038528,-0.11096103,0.2687515,-0.13310456,1.2710614,-0.6199528,-0.3327248,795.78754,789.34064,803.0403,786.9231,754.2857,664.83514,-0.1324462890625,0.09295654296875,0.98358154296875,1.98883056640625,0.40374755859375,-0.859832763671875,3.490964835164835E8,3.0300527472527474E8,1920366.3003663004,71.41644,1,1.0,1.0,1.0,1.0,95.00
2025-10-22 13:35:45.100,0.40173492,-0.59371895,0.35902557,0.49710613,0.64409107,-0.22774915,-0.3076735,0.58297354,0.6412876,0.03496533,0.21841978,0.6002164,0.5205195,0.7038528,-0.11096103,0.2687515,-0.13310456,1.2710614,-0.6199528,-0.3327248,796.5934,799.41394,804.65204,787.326,750.65936,700.696,-0.1324462890625,0.09295654296875,0.98358154296875,1.98883056640625,0.40374755859375,-0.859832763671875,3.490964835164835E8,3.0300527472527474E8,1920366.3003663004,71.41644,1,1.0,1.0,1.0,1.0,95.00
2025-10-22 13:35:45.100,0.40173492,-0.59371895,0.35902557,0.49710613,0.64409107,-0.22774915,-0.3076735,0.58297354,0.6412876,0.03496533,0.21841978,0.6002164,0.5205195,0.7038528,-0.11096103,0.2687515,-0.13310456,1.2710614,-0.6199528,-0.3327248,796.5934,782.8938,803.44324,791.3553,782.0879,776.4469,-0.1324462890625,0.09295654296875,0.98358154296875,1.98883056640625,0.40374755859375,-0.859832763671875,3.490964835164835E8,3.0300527472527474E8,1920366.3003663004,71.41644,1,1.0,1.0,1.0,1.0,95.00
2025-10-22 13:35:45.101,0.40173492,-0.59371895,0.35902557,0.49710613,0.64409107,-0.22774915,-0.3076735,0.58297354,0.6412876,0.03496533,0.21841978,0.6002164,0.5205195,0.7038528,-0.11096103,0.2687515,-0.13310456,1.2710614,-0.6199528,-0.3327248,799.011,814.3223,801.8315,791.75824,803.8461,755.4945,-0.1324462890625,0.09295654296875,0.98358154296875,1.98883056640625,0.40374755859375,-0.859832763671875,3.490964835164835E8,3.0300527472527474E8,1920366.3003663004,71.41644,1,1.0,1.0,1.0,1.0,95.00
2025-10-22 13:35:45.101,0.40173492,-0.59371895,0.35902557,0.49710613,0.64409107,-0.22774915,-0.3076735,0.58297354,0.6412876,0.03496533,0.21841978,0.6002164,0.5205195,0.7038528,-0.11096103,0.2687515,-0.13310456,1.2710614,-0.6199528,-0.3327248,803.0403,853.00366,805.05493,794.9817,821.1722,980.7326,-0.1324462890625,0.09295654296875,0.98358154296875,1.98883056640625,0.40374755859375,-0.859832763671875,3.490964835164835E8,3.0300527472527474E8,1920366.3003663004,71.41644,1,1.0,1.0,1.0,1.0,95.00
2025-10-22 13:35:45.101,0.40173492,-0.59371895,0.35902557,0.49710613,0.64409107,-0.22774915,-0.3076735,0.58297354,0.6412876,0.03496533,0.21841978,0.6002164,0.5205195,0.7038528,-0.11096103,0.2687515,-0.13310456,1.2710614,-0.6199528,-0.3327248,804.65204,814.3223,807.8755,798.20514,807.8755,1098.3883,-0.1324462890625,0.09295654296875,0.98358154296875,1.98883056640625,0.40374755859375,-0.859832763671875,3.490964835164835E8,3.0300527472527474E8,1920366.3003663004,71.41644,1,1.0,1.0,1.0,1.0,95.00
2025-10-22 13:35:45.102,0.40173492,-0.59416956,0.20500319,0.49710613,0.64409107,-0.20940125,-0.3233554,0.58297354,0.6412876,0.050097212,0.21781076,0.6002164,0.5205195,0.70785964,-0.15569013,0.2687515,-0.13310456,1.2829162,-0.71908236,-0.3327248,803.8461,786.9231,806.6667,801.02563,745.0183,1203.956,-0.1324462890625,0.09295654296875,0.98358154296875,1.98883056640625,0.40374755859375,-0.859832763671875,3.490964835164835E8,3.0300527472527474E8,1920366.3003663004,71.41644,1,1.0,1.0,1.0,1.0,95.00
2025-10-22 13:35:45.103,0.40173492,-0.59416956,0.20500319,0.49710613,0.64409107,-0.20940125,-0.3233554,0.58297354,0.6412876,0.050097212,0.21781076,0.6002164,0.5205195,0.70785964,-0.15569013,0.2687515,-0.13310456,1.2829162,-0.71908236,-0.3327248,801.8315,779.2674,804.2491,798.20514,784.10254,924.7253,-0.1324462890625,0.09295654296875,0.98358154296875,1.98883056640625,0.40374755859375,-0.859832763671875,3.490964835164835E8,3.0300527472527474E8,1920366.3003663004,71.41644,1,1.0,1.0,1.0,1.0,95.00
2025-10-22 13:35:45.103,0.40173492,-0.59416956,0.20500319,0.49710613,0.64409107,-0.20940125,-0.3233554,0.58297354,0.6412876,0.050097212,0.21781076,0.6002164,0.5205195,0.70785964,-0.15569013,0.2687515,-0.13310456,1.2829162,-0.71908236,-0.3327248,806.6667,810.696,805.05493,796.1905,827.2161,659.59705,-0.1324462890625,0.09295654296875,0.98358154296875,1.98883056640625,0.40374755859375,-0.859832763671875,3.490964835164835E8,3.0300527472527474E8,1920366.3003663004,71.41644,1,1.0,1.0,1.0,1.0,95.00
2025-10-22 13:35:45.104,0.40173492,-0.59416956,0.20500319,0.49710613,0.64409107,-0.20940125,-0.3233554,0.58297354,0.6412876,0.050097212,0.21781076,0.6002164,0.5205195,0.70785964,-0.15569013,0.2687515,-0.13310456,1.2829162,-0.71908236,-0.3327248,804.2491,808.68134,807.0696,799.011,784.90845,663.6264,-0.1324462890625,0.09295654296875,0.98358154296875,1.98883056640625,0.40374755859375,-0.859832763671875,3.490964835164835E8,3.0300527472527474E8,1920366.3003663004,71.41644,1,1.0,1.0,1.0,1.0,95.00
2025-10-22 13:35:45.104,0.40173492,-0.59416956,0.20500319,0.49710613,0.64409107,-0.20940125,-0.3233554,0.58297354,0.6412876,0.050097212,0.21781076,0.6002164,0.5205195,0.70785964,-0.15569013,0.2687515,-0.13310456,1.2829162,-0.71908236,-0.3327248,801.02563,793.36993,803.0403,794.9817,813.5165,724.0659,-0.1324462890625,0.09295654296875,0.98358154296875,1.98883056640625,0.40374755859375,-0.859832763671875,3.490964835164835E8,3.0300527472527474E8,1920366.3003663004,71.41644,1,1.0,1.0,1.0,1.0,95.00
2025-10-22 13:35:45.148,0.40173492,-0.59416956,0.20500319,0.49710613,0.64409107,-0.20940125,-0.3233554,0.58297354,0.6412876,0.050097212,0.21781076,0.6002164,0.5205195,0.70785964,-0.15569013,0.2687515,-0.13310456,1.2829162,-0.71908236,-0.3327248,800.6227,794.17584,800.2198,792.1612,834.4689,728.0952,-0.117919921875,0.0985107421875,0.96624755859375,0.560760498046875,0.49346923828125,1.323394775390625,3.492286446886447E8,3.03101978021978E8,1913113.553113553,72.33844,1,1.0,1.0,1.0,1.0,95.00
2025-10-22 13:35:45.149,0.40173492,-0.59416956,0.20500319,0.49710613,0.64409107,-0.20940125,-0.3233554,0.58297354,0.6412876,0.050097212,0.21781076,0.6002164,0.5205195,0.70785964,-0.15569013,0.2687515,-0.13310456,1.2829162,-0.71908236,-0.3327248,802.6374,829.6337,801.4286,793.36993,823.9927,708.3516,-0.117919921875,0.0985107421875,0.96624755859375,0.560760498046875,0.49346923828125,1.323394775390625,3.492286446886447E8,3.03101978021978E8,1913113.553113553,72.33844,1,1.0,1.0,1.0,1.0,95.00
2025-10-22 13:35:45.149,0.40173492,-0.59416956,0.20500319,0.49710613,0.64409107,-0.20940125,-0.3233554,0.58297354,0.6412876,0.050097212,0.21781076,0.6002164,0.5205195,0.70785964,-0.15569013,0.2687515,-0.13310456,1.2829162,-0.71908236,-0.3327248,805.4579,828.4249,799.41394,791.75824,853.00366,800.2198,-0.117919921875,0.0985107421875,0.96624755859375,0.560760498046875,0.49346923828125,1.323394775390625,3.492286446886447E8,3.03101978021978E8,1913113.553113553,72.33844,1,1.0,1.0,1.0,1.0,95.00
2025-10-22 13:35:45.149,0.40173492,-0.59416956,0.20500319,0.49710613,0.64409107,-0.20940125,-0.3233554,0.58297354,0.6412876,0.050097212,0.21781076,0.6002164,0.5205195,0.70785964,-0.15569013,0.2687515,-0.13310456,1.2829162,-0.71908236,-0.3327248,802.6374,798.20514,803.44324,792.96704,812.3077,792.96704,-0.117919921875,0.0985107421875,0.96624755859375,0.560760498046875,0.49346923828125,1.323394775390625,3.492286446886447E8,3.03101978021978E8,1913113.553113553,72.33844,1,1.0,1.0,1.0,1.0,95.00
2025-10-22 13:35:45.150,0.40173492,-0.59416956,0.20500319,0.49710613,0.64409107,-0.20940125,-0.3233554,0.58297354,0.6412876,0.050097212,0.21781076,0.6002164,0.5205195,0.70785964,-0.15569013,0.2687515,-0.13310456,1.2829162,-0.71908236,-0.3327248,799.011,786.9231,804.2491,795.38464,784.90845,753.47986,-0.117919921875,0.0985107421875,0.96624755859375,0.560760498046875,0.49346923828125,1.323394775390625,3.492286446886447E8,3.03101978021978E8,1913113.553113553,72.33844,1,1.0,1.0,1.0,1.0,95.00
2025-10-22 13:35:45.150,0.40173492,-0.59416956,0.20500319,0.49710613,0.64409107,-0.20940125,-0.3233554,0.58297354,0.6412876,0.050097212,0.21781076,0.6002164,0.5205195,0.70785964,-0.15569013,0.2687515,-0.13310456,1.2829162,-0.71908236,-0.3327248,803.44324,833.663,800.2198,795.38464,754.2857,916.26373,-0.117919921875,0.0985107421875,0.96624755859375,0.560760498046875,0.49346923828125,1.323394775390625,3.492286446886447E8,3.03101978021978E8,1913113.553113553,72.33844,1,1.0,1.0,1.0,1.0,95.00
2025-10-22 13:35:45.150,0.40173492,-0.59416956,0.20500319,0.49710613,0.64409107,-0.20940125,-0.3233554,0.58297354,0.6412876,0.050097212,0.21781076,0.6002164,0.5205195,0.70785964,-0.15569013,0.2687515,-0.13310456,1.2829162,-0.71908236,-0.3327248,806.26373,837.6923,801.4286,795.78754,749.45056,1109.2675,-0.117919921875,0.0985107421875,0.96624755859375,0.560760498046875,0.49346923828125,1.323394775390625,3.492286446886447E8,3.03101978021978E8,1913113.553113553,72.33844,1,1.0,1.0,1.0,1.0,95.00
2025-10-22 13:35:45.151,0.40173492,-0.59416956,0.20500319,0.49710613,0.64409107,-0.20940125,-0.3233554,0.58297354,0.6412876,0.050097212,0.21781076,0.6002164,0.5205195,0.70785964,-0.15569013,0.2687515,-0.13310456,1.2829162,-0.71908236,-0.3327248,803.44324,780.87915,797.8022,796.1905,777.25275,1060.9158,-0.117919921875,0.0985107421875,0.96624755859375,0.560760498046875,0.49346923828125,1.323394775390625,3.492286446886447E8,3.03101978021978E8,1913113.553113553,72.33844,1,1.0,1.0,1.0,1.0,95.00
2025-10-22 13:35:45.151,0.40173492,-0.59416956,0.20500319,0.49710613,0.64409107,-0.20940125,-0.3233554,0.58297354,0.6412876,0.050097212,0.21781076,0.6002164,0.5205195,0.70785964,-0.15569013,0.2687515,-0.13310456,1.2829162,-0.71908236,-0.3327248,797.8022,755.09155,793.7729,794.9817,772.8205,678.93774,-0.117919921875,0.0985107421875,0.96624755859375,0.560760498046875,0.49346923828125,1.323394775390625,3.492286446886447E8,3.03101978021978E8,1913113.553113553,72.33844,1,1.0,1.0,1.0,1.0,95.00
2025-10-22 13:35:45.151,0.40173492,-0.59416956,0.20500319,0.49710613,0.64409107,-0.20940125,-0.3233554,0.58297354,0.6412876,0.050097212,0.21781076,0.6002164,0.5205195,0.70785964,-0.15569013,0.2687515,-0.13310456,1.2829162,-0.71908236,-0.3327248,805.4579,814.7253,795.38464,795.78754,835.6777,616.8865,-0.117919921875,0.0985107421875,0.96624755859375,0.560760498046875,0.49346923828125,1.323394775390625,3.492286446886447E8,3.03101978021978E8,1913113.553113553,72.33844,1,1.0,1.0,1.0,1.0,95.00
2025-10-22 13:35:45.152,0.40173492,-0.59416956,0.20500319,0.49710613,0.64409107,-0.20940125,-0.3233554,0.58297354,0.6412876,0.050097212,0.21781076,0.6002164,0.5205195,0.70785964,-0.15569013,0.2687515,-0.13310456,1.2829162,-0.71908236,-0.3327248,810.293,862.27106,798.20514,794.17584,927.1429,1089.1208,-0.117919921875,0.0985107421875,0.96624755859375,0.560760498046875,0.49346923828125,1.323394775390625,3.492286446886447E8,3.03101978021978E8,1913113.553113553,72.33844,1,1.0,1.0,1.0,1.0,95.00
2025-10-22 13:35:45.152,0.40173492,-0.59416956,0.20500319,0.49710613,0.64409107,-0.20940125,-0.3233554,0.58297354,0.6412876,0.050097212,0.21781076,0.6002164,0.5205195,0.70785964,-0.15569013,0.2687515,-0.13310456,1.2829162,-0.71908236,-0.3327248,802.23444,813.1135,796.1905,790.14655,934.3956,1368.7546,-0.117919921875,0.0985107421875,0.96624755859375,0.560760498046875,0.49346923828125,1.323394775390625,3.492286446886447E8,3.03101978021978E8,1913113.553113553,72.33844,1,1.0,1.0,1.0,1.0,95.00
2025-10-22 13:35:45.191,0.40173492,-0.59416956,0.20500319,0.49710613,0.64409107,-0.20940125,-0.3233554,0.58297354,0.6412876,0.050097212,0.21781076,0.6002164,0.5205195,0.70785964,-0.15569013,0.2687515,-0.13310456,1.2829162,-0.71908236,-0.3327248,797.8022,734.1392,796.5934,786.9231,846.55676,897.72894,-0.10205078125,0.10015869140625,0.9617919921875,-0.95703125,-1.936492919921875,1.39068603515625,3.492286446886447E8,3.03101978021978E8,1913113.553113553,72.33844,1,1.0,1.0,1.0,1.0,95.00
2025-10-22 13:35:45.192,0.40173492,-0.59416956,0.20500319,0.49710613,0.64409107,-0.20940125,-0.3233554,0.58297354,0.6412876,0.050097212,0.21781076,0.6002164,0.5205195,0.70785964,-0.15569013,0.2687515,-0.13310456,1.2829162,-0.71908236,-0.3327248,797.8022,768.7912,799.41394,787.326,753.0769,495.20148,-0.10205078125,0.10015869140625,0.9617919921875,-0.95703125,-1.936492919921875,1.39068603515625,3.492286446886447E8,3.03101978021978E8,1913113.553113553,72.33844,1,1.0,1.0,1.0,1.0,95.00
2025-10-22 13:35:45.193,0.40173492,-0.59416956,0.20500319,0.49710613,0.64409107,-0.20940125,-0.3233554,0.58297354,0.6412876,0.050097212,0.21781076,0.6002164,0.5205195,0.70785964,-0.15569013,0.2687515,-0.13310456,1.2829162,-0.71908236,-0.3327248,803.44324,840.10986,803.0403,788.93774,732.9304,551.2088,-0.10205078125,0.10015869140625,0.9617919921875,-0.95703125,-1.936492919921875,1.39068603515625,3.492286446886447E8,3.03101978021978E8,1913113.553113553,72.33844,1,1.0,1.0,1.0,1.0,95.00
2025-10-22 13:35:45.193,0.40173492,-0.59416956,0.20500319,0.49710613,0.64409107,-0.20940125,-0.3233554,0.58297354,0.6412876,0.050097212,0.21781076,0.6002164,0.5205195,0.70785964,-0.15569013,0.2687515,-0.13310456,1.2829162,-0.71908236,-0.3327248,812.3077,823.9927,806.6667,792.5641,819.15753,661.6117,-0.10205078125,0.10015869140625,0.9617919921875,-0.95703125,-1.936492919921875,1.39068603515625,3.492286446886447E8,3.03101978021978E8,1913113.553113553,72.33844,1,1.0,1.0,1.0,1.0,95.00
2025-10-22 13:35:45.194,0.40173492,-0.59416956,0.20500319,0.49710613,0.64409107,-0.20940125,-0.3233554,0.58297354,0.6412876,0.050097212,0.21781076,0.6002164,0.5205195,0.70785964,-0.15569013,0.2687515,-0.13310456,1.2829162,-0.71908236,-0.3327248,813.5165,800.6227,803.0403,793.36993,876.77655,750.2564,-0.10205078125,0.10015869140625,0.9617919921875,-0.95703125,-1.936492919921875,1.39068603515625,3.492286446886447E8,3.03101978021978E8,1913113.553113553,72.33844,1,1.0,1.0,1.0,1.0,95.00
2025-10-22 13:35:45.194,0.40173492,-0.59416956,0.20500319,0.49710613,0.64409107,-0.20940125,-0.3233554,0.58297354,0.6412876,0.050097212,0.21781076,0.6002164,0.5205195,0.70785964,-0.15569013,0.2687515,-0.13310456,1.2829162,-0.71908236,-0.3327248,809.89014,814.3223,805.4579,796.1905,878.3883,1030.6959,-0.10205078125,0.10015869140625,0.9617919921875,-0.95703125,-1.936492919921875,1.39068603515625,3.492286446886447E8,3.03101978021978E8,1913113.553113553,72.33844,1,1.0,1.0,1.0,1.0,95.00
2025-10-22 13:35:45.194,0.40173492,-0.59416956,0.20500319,0.49710613,0.64409107,-0.20940125,-0.3233554,0.58297354,0.6412876,0.050097212,0.21781076,0.6002164,0.5205195,0.70785964,-0.15569013,0.2687515,-0.13310456,1.2829162,-0.71908236,-0.3327248,811.0989,828.022,806.26373,797.3993,839.304,1108.4615,-0.10205078125,0.10015869140625,0.9617919921875,-0.95703125,-1.936492919921875,1.39068603515625,3.492286446886447E8,3.03101978021978E8,1913113.553113553,72.33844,1,1.0,1.0,1.0,1.0,95.00
2025-10-22 13:35:45.195,0.40173492,-0.59416956,0.20500319,0.49710613,0.64409107,-0.20940125,-0.3233554,0.58297354,0.6412876,0.050097212,0.21781076,0.6002164,0.5205195,0.70785964,-0.15569013,0.2687515,-0.13310456,1.2829162,-0.71908236,-0.3327248,808.68134,796.1905,803.0403,794.9817,885.2381,892.49084,-0.10205078125,0.10015869140625,0.9617919921875,-0.95703125,-1.936492919921875,1.39068603515625,3.492286446886447E8,3.03101978021978E8,1913113.553113553,72.33844,1,1.0,1.0,1.0,1.0,95.00
2025-10-22 13:35:45.195,0.40173492,-0.59416956,0.20500319,0.49710613,0.64409107,-0.20940125,-0.3233554,0.58297354,0.6412876,0.050097212,0.21781076,0.6002164,0.5205195,0.70785964,-0.15569013,0.2687515,-0.13310456,1.2829162,-0.71908236,-0.3327248,802.6374,773.22345,801.02563,793.36993,885.2381,688.60803,-0.10205078125,0.10015869140625,0.9617919921875,-0.95703125,-1.936492919921875,1.39068603515625,3.492286446886447E8,3.03101978021978E8,1913113.553113553,72.33844,1,1.0,1.0,1.0,1.0,95.00
2025-10-22 13:35:45.195,0.40173492,-0.6092832,0.054354616,-0.8779405,0.64409107,-0.19643764,-0.33306426,0.041915115,0.6412876,0.06393501,0.2022225,-0.085416764,0.5205195,0.7000494,-0.19665061,0.060570642,-0.13310456,1.2860123,-0.8144825,-0.56682074,800.2198,762.3443,798.20514,793.36993,766.3736,508.49817,-0.10205078125,0.10015869140625,0.9617919921875,-0.95703125,-1.936492919921875,1.39068603515625,3.492286446886447E8,3.03101978021978E8,1913113.553113553,72.33844,1,1.0,1.0,1.0,1.0,95.00
2025-10-22 13:35:45.197,0.40173492,-0.6092832,0.054354616,-0.8779405,0.64409107,-0.19643764,-0.33306426,0.041915115,0.6412876,0.06393501,0.2022225,-0.085416764,0.5205195,0.7000494,-0.19665061,0.060570642,-0.13310456,1.2860123,-0.8144825,-0.56682074,804.2491,809.89014,799.81683,794.57874,735.7509,536.30035,-0.10205078125,0.10015869140625,0.9617919921875,-0.95703125,-1.936492919921875,1.39068603515625,3.492286446886447E8,3.03101978021978E8,1913113.553113553,72.33844,1,1.0,1.0,1.0,1.0,95.00
2025-10-22 13:35:45.198,0.40173492,-0.6092832,0.054354616,-0.8779405,0.64409107,-0.19643764,-0.33306426,0.041915115,0.6412876,0.06393501,0.2022225,-0.085416764,0.5205195,0.7000494,-0.19665061,0.060570642,-0.13310456,1.2860123,-0.8144825,-0.56682074,811.0989,829.6337,799.81683,797.3993,820.3663,708.3516,-0.10205078125,0.10015869140625,0.9617919921875,-0.95703125,-1.936492919921875,1.39068603515625,3.492286446886447E8,3.03101978021978E8,1913113.553113553,72.33844,1,1.0,1.0,1.0,1.0,95.00
2025-10-22 13:35:45.236,0.40173492,-0.6092832,0.054354616,-0.8779405,0.64409107,-0.19643764,-0.33306426,0.041915115,0.6412876,0.06393501,0.2022225,-0.085416764,0.5205195,0.7000494,-0.19665061,0.060570642,-0.13310456,1.2860123,-0.8144825,-0.56682074,808.68134,791.75824,801.02563,795.78754,827.2161,627.76556,-0.0958251953125,0.10491943359375,1.0015869140625,-0.8074951171875,-4.314117431640625,1.921539306640625,3.4963882783882785E8,3.032631501831502E8,1915531.1355311354,72.33844,1,1.0,1.0,1.0,1.0,95.00
2025-10-22 13:35:45.236,0.40173492,-0.6092832,0.054354616,-0.8779405,0.64409107,-0.19643764,-0.33306426,0.041915115,0.6412876,0.06393501,0.2022225,-0.085416764,0.5205195,0.7000494,-0.19665061,0.060570642,-0.13310456,1.2860123,-0.8144825,-0.56682074,810.293,799.41394,800.2198,793.36993,795.38464,704.3223,-0.0958251953125,0.10491943359375,1.0015869140625,-0.8074951171875,-4.314117431640625,1.921539306640625,3.4963882783882785E8,3.032631501831502E8,1915531.1355311354,72.33844,1,1.0,1.0,1.0,1.0,95.00
2025-10-22 13:35:45.237,0.40173492,-0.6092832,0.054354616,-0.8779405,0.64409107,-0.19643764,-0.33306426,0.041915115,0.6412876,0.06393501,0.2022225,-0.085416764,0.5205195,0.7000494,-0.19665061,0.060570642,-0.13310456,1.2860123,-0.8144825,-0.56682074,813.1135,813.1135,797.8022,797.3993,801.02563,856.63007,-0.0958251953125,0.10491943359375,1.0015869140625,-0.8074951171875,-4.314117431640625,1.921539306640625,3.4963882783882785E8,3.032631501831502E8,1915531.1355311354,72.33844,1,1.0,1.0,1.0,1.0,95.00
2025-10-22 13:35:45.237,0.40173492,-0.6092832,0.054354616,-0.8779405,0.64409107,-0.19643764,-0.33306426,0.041915115,0.6412876,0.06393501,0.2022225,-0.085416764,0.5205195,0.7000494,-0.19665061,0.060570642,-0.13310456,1.2860123,-0.8144825,-0.56682074,807.8755,809.0842,796.1905,794.9817,838.9011,748.24176,-0.0958251953125,0.10491943359375,1.0015869140625,-0.8074951171875,-4.314117431640625,1.921539306640625,3.4963882783882785E8,3.032631501831502E8,1915531.1355311354,72.33844,1,1.0,1.0,1.0,1.0,95.00
2025-10-22 13:35:45.237,0.40173492,-0.6092832,0.054354616,-0.8779405,0.64409107,-0.19643764,-0.33306426,0.041915115,0.6412876,0.06393501,0.2022225,-0.085416764,0.5205195,0.7000494,-0.19665061,0.060570642,-0.13310456,1.2860123,-0.8144825,-0.56682074,813.91943,807.0696,799.41394,792.1612,856.63007,744.61536,-0.0958251953125,0.10491943359375,1.0015869140625,-0.8074951171875,-4.314117431640625,1.921539306640625,3.4963882783882785E8,3.032631501831502E8,1915531.1355311354,72.33844,1,1.0,1.0,1.0,1.0,95.00
2025-10-22 13:35:45.238,0.40173492,-0.6092832,0.054354616,-0.8779405,0.64409107,-0.19643764,-0.33306426,0.041915115,0.6412876,0.06393501,0.2022225,-0.085416764,0.5205195,0.7000494,-0.19665061,0.060570642,-0.13310456,1.2860123,-0.8144825,-0.56682074,814.3223,799.011,800.2198,794.9817,801.4286,990.0,-0.0958251953125,0.10491943359375,1.0015869140625,-0.8074951171875,-4.314117431640625,1.921539306640625,3.4963882783882785E8,3.032631501831502E8,1915531.1355311354,72.33844,1,1.0,1.0,1.0,1.0,95.00
2025-10-22 13:35:45.238,0.40173492,-0.6092832,0.054354616,-0.8779405,0.64409107,-0.19643764,-0.33306426,0.041915115,0.6412876,0.06393501,0.2022225,-0.085416764,0.5205195,0.7000494,-0.19665061,0.060570642,-0.13310456,1.2860123,-0.8144825,-0.56682074,809.89014,803.8461,800.6227,793.36993,774.83514,1076.227,-0.0958251953125,0.10491943359375,1.0015869140625,-0.8074951171875,-4.314117431640625,1.921539306640625,3.4963882783882785E8,3.032631501831502E8,1915531.1355311354,72.33844,1,1.0,1.0,1.0,1.0,95.00
2025-10-22 13:35:45.238,0.40173492,-0.6092832,0.054354616,-0.8779405,0.64409107,-0.19643764,-0.33306426,0.041915115,0.6412876,0.06393501,0.2022225,-0.085416764,0.5205195,0.7000494,-0.19665061,0.060570642,-0.13310456,1.2860123,-0.8144825,-0.56682074,811.50183,815.12823,803.0403,794.57874,809.89014,944.87177,-0.0958251953125,0.10491943359375,1.0015869140625,-0.8074951171875,-4.314117431640625,1.921539306640625,3.4963882783882785E8,3.032631501831502E8,1915531.1355311354,72.33844,1,1.0,1.0,1.0,1.0,95.00
2025-10-22 13:35:45.239,0.40173492,-0.6092832,0.054354616,-0.8779405,0.64409107,-0.19643764,-0.33306426,0.041915115,0.6412876,0.06393501,0.2022225,-0.085416764,0.5205195,0.7000494,-0.19665061,0.060570642,-0.13310456,1.2860123,-0.8144825,-0.56682074,813.1135,786.52014,803.0403,795.78754,783.69965,677.326,-0.0958251953125,0.10491943359375,1.0015869140625,-0.8074951171875,-4.314117431640625,1.921539306640625,3.4963882783882785E8,3.032631501831502E8,1915531.1355311354,72.33844,1,1.0,1.0,1.0,1.0,95.00
2025-10-22 13:35:45.239,0.40173492,-0.6092832,0.054354616,-0.8779405,0.64409107,-0.19643764,-0.33306426,0.041915115,0.6412876,0.06393501,0.2022225,-0.085416764,0.5205195,0.7000494,-0.19665061,0.060570642,-0.13310456,1.2860123,-0.8144825,-0.56682074,814.3223,774.83514,802.23444,792.1612,723.663,475.4579,-0.0958251953125,0.10491943359375,1.0015869140625,-0.8074951171875,-4.314117431640625,1.921539306640625,3.4963882783882785E8,3.032631501831502E8,1915531.1355311354,72.33844,1,1.0,1.0,1.0,1.0,95.00
2025-10-22 13:35:45.239,0.40173492,-0.6092832,0.054354616,-0.8779405,0.64409107,-0.19643764,-0.33306426,0.041915115,0.6412876,0.06393501,0.2022225,-0.085416764,0.5205195,0.7000494,-0.19665061,0.060570642,-0.13310456,1.2860123,-0.8144825,-0.56682074,812.71063,796.99634,804.2491,792.96704,731.31866,519.7802,-0.0958251953125,0.10491943359375,1.0015869140625,-0.8074951171875,-4.314117431640625,1.921539306640625,3.4963882783882785E8,3.032631501831502E8,1915531.1355311354,72.33844,1,1.0,1.0,1.0,1.0,95.00
2025-10-22 13:35:45.240,0.40173492,-0.6092832,0.054354616,-0.8779405,0.64409107,-0.19643764,-0.33306426,0.041915115,0.6412876,0.06393501,0.2022225,-0.085416764,0.5205195,0.7000494,-0.19665061,0.060570642,-0.13310456,1.2860123,-0.8144825,-0.56682074,812.71063,855.82416,805.4579,797.8022,807.47253,885.64105,-0.0958251953125,0.10491943359375,1.0015869140625,-0.8074951171875,-4.314117431640625,1.921539306640625,3.4963882783882785E8,3.032631501831502E8,1915531.1355311354,72.33844,1,1.0,1.0,1.0,1.0,95.00
2025-10-22 13:35:45.273,0.40173492,-0.6092832,0.054354616,-0.8779405,0.64409107,-0.19643764,-0.33306426,0.041915115,0.6412876,0.06393501,0.2022225,-0.085416764,0.5205195,0.7000494,-0.19665061,0.060570642,-0.13310456,1.2860123,-0.8144825,-0.56682074,814.7253,812.71063,802.6374,798.20514,826.4103,967.8388,-0.0958251953125,0.10491943359375,1.0015869140625,-0.8074951171875,-4.314117431640625,1.921539306640625,3.4963882783882785E8,3.032631501831502E8,1915531.1355311354,72.33844,1,1.0,1.0,1.0,1.0,95.00
2025-10-22 13:35:45.274,0.40173492,-0.6092832,0.054354616,-0.8779405,0.64409107,-0.19643764,-0.33306426,0.041915115,0.6412876,0.06393501,0.2022225,-0.085416764,0.5205195,0.7000494,-0.19665061,0.060570642,-0.13310456,1.2860123,-0.8144825,-0.56682074,817.5458,775.64105,800.6227,796.5934,843.73627,730.10986,-0.0958251953125,0.10491943359375,1.0015869140625,-0.8074951171875,-4.314117431640625,1.921539306640625,3.4963882783882785E8,3.032631501831502E8,1915531.1355311354,72.33844,1,1.0,1.0,1.0,1.0,95.00
2025-10-22 13:35:45.274,0.40173492,-0.6092832,0.054354616,-0.8779405,0.64409107,-0.19643764,-0.33306426,0.041915115,0.6412876,0.06393501,0.2022225,-0.085416764,0.5205195,0.7000494,-0.19665061,0.060570642,-0.13310456,1.2860123,-0.8144825,-0.56682074,815.9341,790.54944,802.6374,799.41394,861.8681,710.7692,-0.0958251953125,0.10491943359375,1.0015869140625,-0.8074951171875,-4.314117431640625,1.921539306640625,3.4963882783882785E8,3.032631501831502E8,1915531.1355311354,72.33844,1,1.0,1.0,1.0,1.0,95.00
2025-10-22 13:35:45.275,0.40173492,-0.6092832,0.054354616,-0.8779405,0.64409107,-0.19643764,-0.33306426,0.041915115,0.6412876,0.06393501,0.2022225,-0.085416764,0.5205195,0.7000494,-0.19665061,0.060570642,-0.13310456,1.2860123,-0.8144825,-0.56682074,809.89014,813.5165,803.44324,801.4286,799.011,707.1429,-0.0958251953125,0.10491943359375,1.0015869140625,-0.8074951171875,-4.314117431640625,1.921539306640625,3.4963882783882785E8,3.032631501831502E8,1915531.1355311354,72.33844,1,1.0,1.0,1.0,1.0,95.00
2025-10-22 13:35:45.275,0.40173492,-0.6092832,0.054354616,-0.8779405,0.64409107,-0.19643764,-0.33306426,0.041915115,0.6412876,0.06393501,0.2022225,-0.085416764,0.5205195,0.7000494,-0.19665061,0.060570642,-0.13310456,1.2860123,-0.8144825,-0.56682074,813.5165,828.8278,805.8608,801.8315,763.5531,748.6447,-0.0958251953125,0.10491943359375,1.0015869140625,-0.8074951171875,-4.314117431640625,1.921539306640625,3.4963882783882785E8,3.032631501831502E8,1915531.1355311354,72.33844,1,1.0,1.0,1.0,1.0,95.00
2025-10-22 13:35:45.275,0.40173492,-0.6092832,0.054354616,-0.8779405,0.64409107,-0.19643764,-0.33306426,0.041915115,0.6412876,0.06393501,0.2022225,-0.085416764,0.5205195,0.7000494,-0.19665061,0.060570642,-0.13310456,1.2860123,-0.8144825,-0.56682074,806.6667,814.7253,807.47253,801.4286,763.1502,933.9927,-0.0958251953125,0.10491943359375,1.0015869140625,-0.8074951171875,-4.314117431640625,1.921539306640625,3.4963882783882785E8,3.032631501831502E8,1915531.1355311354,72.33844,1,1.0,1.0,1.0,1.0,95.00
2025-10-22 13:35:45.275,0.40173492,-0.6092832,0.054354616,-0.8779405,0.64409107,-0.19643764,-0.33306426,0.041915115,0.6412876,0.06393501,0.2022225,-0.085416764,0.5205195,0.7000494,-0.19665061,0.060570642,-0.13310456,1.2860123,-0.8144825,-0.56682074,803.0403,786.52014,806.26373,796.99634,738.1685,1025.4579,-0.0958251953125,0.10491943359375,1.0015869140625,-0.8074951171875,-4.314117431640625,1.921539306640625,3.4963882783882785E8,3.032631501831502E8,1915531.1355311354,72.33844,1,1.0,1.0,1.0,1.0,95.00
2025-10-22 13:35:45.276,0.40173492,-0.6092832,0.054354616,-0.8779405,0.64409107,-0.19643764,-0.33306426,0.041915115,0.6412876,0.06393501,0.2022225,-0.085416764,0.5205195,0.7000494,-0.19665061,0.060570642,-0.13310456,1.2860123,-0.8144825,-0.56682074,804.65204,791.3553,805.05493,792.5641,720.84247,994.0293,-0.0958251953125,0.10491943359375,1.0015869140625,-0.8074951171875,-4.314117431640625,1.921539306640625,3.4963882783882785E8,3.032631501831502E8,1915531.1355311354,72.33844,1,1.0,1.0,1.0,1.0,95.00
2025-10-22 13:35:45.276,0.40173492,-0.6092832,0.054354616,-0.8779405,0.64409107,-0.19643764,-0.33306426,0.041915115,0.6412876,0.06393501,0.2022225,-0.085416764,0.5205195,0.7000494,-0.19665061,0.060570642,-0.13310456,1.2860123,-0.8144825,-0.56682074,805.4579,801.02563,803.44324,795.38464,775.64105,762.3443,-0.0958251953125,0.10491943359375,1.0015869140625,-0.8074951171875,-4.314117431640625,1.921539306640625,3.4963882783882785E8,3.032631501831502E8,1915531.1355311354,72.33844,1,1.0,1.0,1.0,1.0,95.00
2025-10-22 13:35:45.276,0.40173492,-0.6092832,0.054354616,-0.8779405,0.64409107,-0.19643764,-0.33306426,0.041915115,0.6412876,0.06393501,0.2022225,-0.085416764,0.5205195,0.7000494,-0.19665061,0.060570642,-0.13310456,1.2860123,-0.8144825,-0.56682074,807.47253,788.5348,803.8461,796.1905,778.46155,606.4103,-0.0958251953125,0.10491943359375,1.0015869140625,-0.8074951171875,-4.314117431640625,1.921539306640625,3.4963882783882785E8,3.032631501831502E8,1915531.1355311354,72.33844,1,1.0,1.0,1.0,1.0,95.00
2025-10-22 13:35:45.277,0.40173492,-0.6092832,0.054354616,-0.8779405,0.64409107,-0.19643764,-0.33306426,0.041915115,0.6412876,0.06393501,0.2022225,-0.085416764,0.5205195,0.7000494,-0.19665061,0.060570642,-0.13310456,1.2860123,-0.8144825,-0.56682074,806.6667,785.31134,804.2491,794.57874,815.12823,617.6923,-0.0958251953125,0.10491943359375,1.0015869140625,-0.8074951171875,-4.314117431640625,1.921539306640625,3.4963882783882785E8,3.032631501831502E8,1915531.1355311354,72.33844,1,1.0,1.0,1.0,1.0,95.00
2025-10-22 13:35:45.277,-0.017429153,-0.60111064,-0.059787568,-0.88457346,0.22873418,-0.19614515,-0.34921333,0.050727822,0.19559823,0.08958745,0.17225026,-0.048872996,0.17113732,0.6845643,-0.22470422,0.0802134,-0.16893841,1.2841712,-0.87983704,-0.5609072,801.8315,790.9524,805.05493,793.7729,825.2015,584.65204,-0.0958251953125,0.10491943359375,1.0015869140625,-0.8074951171875,-4.314117431640625,1.921539306640625,3.4963882783882785E8,3.032631501831502E8,1915531.1355311354,72.33844,1,1.0,1.0,1.0,1.0,95.00
2025-10-22 13:35:45.307,-0.017429153,-0.60111064,-0.059787568,-0.88457346,0.22873418,-0.19614515,-0.34921333,0.050727822,0.19559823,0.08958745,0.17225026,-0.048872996,0.17113732,0.6845643,-0.22470422,0.0802134,-0.16893841,1.2841712,-0.87983704,-0.5609072,802.23444,830.4396,806.6667,790.54944,782.49084,619.707,-0.11572265625,0.1060791015625,1.0081787109375,0.186920166015625,0.067291259765625,-0.28411865234375,3.4990073260073256E8,3.0328893772893775E8,1919560.4395604394,72.33844,1,1.0,1.0,1.0,1.0,95.00
2025-10-22 13:35:45.308,-0.017429153,-0.60111064,-0.059787568,-0.88457346,0.22873418,-0.19614515,-0.34921333,0.050727822,0.19559823,0.08958745,0.17225026,-0.048872996,0.17113732,0.6845643,-0.22470422,0.0802134,-0.16893841,1.2841712,-0.87983704,-0.5609072,805.4579,814.7253,806.26373,793.7729,799.81683,689.81683,-0.11572265625,0.1060791015625,1.0081787109375,0.186920166015625,0.067291259765625,-0.28411865234375,3.4990073260073256E8,3.0328893772893775E8,1919560.4395604394,72.33844,1,1.0,1.0,1.0,1.0,95.00
